# from ASAGIO
#wave(NM)   resp   
38000.0   0.01   
38500.0   0.03   
39000.0   0.22   
39500.0   0.72   
40000.0   0.81   
40500.0   0.8   
41000.0   0.79   
41500.0   0.79   
42000.0   0.83   
42500.0   0.86   
43000.0   0.82   
43500.0   0.8   
44000.0   0.81   
44500.0   0.81   
45000.0   0.78   
45500.0   0.76   
46000.0   0.76   
46500.0   0.73   
47000.0   0.7   
47500.0   0.67   
48000.0   0.65   
48500.0   0.63   
49000.0   0.6   
49500.0   0.57   
50000.0   0.44   
50500.0   0.14   
51000.0   0.02   
51500.0   0.01   
52000.0   0.0   
