# http://www.astro.ucla.edu/~wright/WISE/passbands.html
# wavelength in micron
#wave   response   
25300.0   7.003e-17   
25400.0   1.522e-16   
25500.0   1.844e-13   
25600.0   9.997e-14   
25700.0   7.625e-15   
25800.0   3.118e-33   
25900.0   1.462e-42   
26000.0   5.623e-31   
26100.0   3.098e-31   
26200.0   3.176e-31   
26300.0   2.18e-29   
26400.0   1.787e-31   
26500.0   2.7e-29   
26600.0   2.247e-36   
26700.0   2.359e-15   
26800.0   3.207e-15   
26900.0   1.199e-14   
27000.0   1.202e-14   
27100.0   8.765e-15   
27200.0   1.952e-14   
27300.0   1.035e-13   
27400.0   7.126e-15   
27500.0   1.393e-15   
27600.0   4.985e-25   
27700.0   5.091e-16   
27800.0   9.944e-15   
27900.0   8.07e-16   
28000.0   1.143e-15   
28100.0   2.04e-16   
28200.0   5.719e-15   
28300.0   5.992e-15   
28400.0   4.627e-14   
28500.0   1.741e-14   
28600.0   5.682e-29   
28700.0   3.797e-29   
28800.0   6.839e-32   
28900.0   2.24e-15   
29000.0   1.127e-14   
29100.0   8.233e-14   
29200.0   1.135e-15   
29300.0   7.364e-14   
29400.0   6.407e-14   
29500.0   9.98e-14   
29600.0   1.153e-14   
29700.0   7.823e-15   
29800.0   7.042e-16   
29900.0   7.271e-15   
30000.0   4.592e-14   
30100.0   1.052e-14   
30200.0   2.544e-13   
30300.0   1.169e-13   
30400.0   1.287e-14   
30500.0   6.288e-14   
30600.0   4.588e-34   
30700.0   7.799e-27   
30800.0   2.492e-25   
30900.0   1.711e-25   
31000.0   7.617e-30   
31100.0   4.472e-28   
31200.0   1.129e-29   
31300.0   5.43e-37   
31400.0   1.119e-30   
31500.0   8.334e-16   
31600.0   1.481e-14   
31700.0   3.623e-14   
31800.0   3.962e-14   
31900.0   3.184e-15   
32000.0   4.85e-15   
32100.0   6.317e-16   
32200.0   1.508e-13   
32300.0   1.131e-14   
32400.0   1.418e-13   
32500.0   3.207e-13   
32600.0   1.923e-14   
32700.0   7.169e-14   
32800.0   1.065e-14   
32900.0   1.643e-14   
33000.0   2.745e-13   
33100.0   8.683e-15   
33200.0   1.327e-13   
33300.0   7.677e-30   
33400.0   1.092e-34   
33500.0   2.184e-32   
33600.0   1.886e-40   
33700.0   2.685e-29   
33800.0   1.03e-36   
33900.0   4.031e-38   
34000.0   3.135e-35   
34100.0   9.475e-33   
34200.0   3.356e-34   
34300.0   1e-30   
34400.0   9.762e-16   
34500.0   3.061e-15   
34600.0   8.835e-16   
34700.0   5.74e-16   
34800.0   5.497e-27   
34900.0   2.261e-33   
35000.0   3.028e-28   
35100.0   5.412e-27   
35200.0   1.672e-29   
35300.0   8.001e-24   
35400.0   1.517e-30   
35500.0   5.463e-26   
35600.0   1.279e-32   
35700.0   1.354e-15   
35800.0   3.866e-14   
35900.0   3.6e-15   
36000.0   1.94e-13   
36100.0   3.37e-14   
36200.0   8.353e-14   
36300.0   4.401e-14   
36400.0   2.862e-14   
36500.0   1.129e-13   
36600.0   3.563e-14   
36700.0   6.793e-14   
36800.0   3.571e-13   
36900.0   6.577e-14   
37000.0   3.803e-15   
37100.0   2.195e-14   
37200.0   8.083e-15   
37300.0   3.639e-14   
37400.0   2.004e-14   
37500.0   7.98e-15   
37600.0   7.014e-15   
37700.0   3.612e-14   
37800.0   1.26e-14   
37900.0   4.077e-14   
38000.0   2.721e-13   
38100.0   9.825e-14   
38200.0   8.635e-14   
38300.0   4.495e-15   
38400.0   1.041e-13   
38500.0   2.35e-13   
38600.0   4.299e-14   
38700.0   9.742e-14   
38800.0   2.212e-13   
38900.0   7.684e-14   
39000.0   1.506e-13   
39100.0   6.299e-14   
39200.0   8.508e-14   
39300.0   8.04e-14   
39400.0   2.333e-13   
39500.0   6.671e-14   
39600.0   1.143e-13   
39700.0   8.496e-14   
39800.0   4.521e-14   
39900.0   1.23e-13   
40000.0   2.355e-26   
40100.0   4.851e-33   
40200.0   6.732e-31   
40300.0   1.567e-36   
40400.0   1.869e-25   
40500.0   1.062e-36   
40600.0   3.267e-25   
40700.0   1.18e-30   
40800.0   1.675e-33   
40900.0   6.418e-30   
41000.0   9.451e-30   
41100.0   8.343e-32   
41200.0   3.188e-13   
41300.0   2.321e-14   
41400.0   5.444e-13   
41500.0   1.374e-14   
41600.0   3.263e-13   
41700.0   7.631e-13   
41800.0   1.428e-12   
41900.0   1.39e-12   
42000.0   3.024e-14   
42100.0   3.258e-14   
42200.0   5.389e-13   
42300.0   1.207e-30   
42400.0   1.867e-33   
42500.0   1.622e-28   
42600.0   6.215e-28   
42700.0   2.794e-26   
42800.0   1.467e-30   
42900.0   1.387e-27   
43000.0   2.035e-28   
43100.0   5.902e-25   
43200.0   1.2e-27   
43300.0   2.152e-36   
43400.0   1.414e-36   
43500.0   8.046e-14   
43600.0   1.822e-13   
43700.0   5.063e-13   
43800.0   3.473e-14   
43900.0   3.065e-13   
44000.0   3.936e-13   
44100.0   1.187e-13   
44200.0   1.034e-12   
44300.0   5.295e-14   
44400.0   2.867e-13   
44500.0   3.803e-13   
44600.0   1.657e-13   
44700.0   1.105e-13   
44800.0   3.283e-14   
44900.0   6.248e-14   
45000.0   5.167e-14   
45100.0   2.985e-14   
45200.0   6.42e-15   
45300.0   4.063e-29   
45400.0   1.163e-32   
45500.0   1.723e-15   
45600.0   5.467e-14   
45700.0   1.951e-13   
45800.0   2.222e-13   
45900.0   2.167e-13   
46000.0   4.682e-13   
46100.0   4.249e-13   
46200.0   1.316e-12   
46300.0   4.466e-13   
46400.0   1.212e-12   
46500.0   9.13e-14   
46600.0   9.38e-15   
46700.0   9.552e-14   
46800.0   5.174e-13   
46900.0   4.066e-13   
47000.0   5.19e-13   
47100.0   4.064e-13   
47200.0   1.709e-13   
47300.0   1.877e-13   
47400.0   5.081e-14   
47500.0   6.988e-14   
47600.0   3.161e-12   
47700.0   4.618e-14   
47800.0   6.916e-14   
47900.0   8.404e-14   
48000.0   7.265e-14   
48100.0   5.175e-14   
48200.0   1.714e-13   
48300.0   5.213e-13   
48400.0   2.211e-14   
48500.0   3.92e-12   
48600.0   3.511e-12   
48700.0   3.284e-12   
48800.0   5.006e-12   
48900.0   3.836e-13   
49000.0   6.567e-14   
49100.0   1.05e-13   
49200.0   9.771e-14   
49300.0   4.556e-13   
49400.0   2.782e-13   
49500.0   7.55e-12   
49600.0   7.499e-13   
49700.0   2.017e-11   
49800.0   1.224e-11   
49900.0   6.818e-12   
50000.0   1.348e-11   
50100.0   4.33e-09   
50200.0   3.09e-09   
50300.0   5.489e-09   
50400.0   5.372e-09   
50500.0   8.352e-09   
50600.0   1.034e-08   
50700.0   9.649e-09   
50800.0   1.205e-08   
50900.0   1.278e-08   
51000.0   1.772e-08   
51100.0   1.84e-08   
51200.0   1.859e-08   
51300.0   2.042e-08   
51400.0   1.622e-08   
51500.0   2.051e-08   
51600.0   1.95e-08   
51700.0   1.429e-08   
51800.0   1.404e-08   
51900.0   1.895e-08   
52000.0   1.777e-08   
52100.0   1.774e-08   
52200.0   1.199e-08   
52300.0   1.49e-08   
52400.0   1.082e-08   
52500.0   1.025e-08   
52600.0   1.041e-08   
52700.0   9.064e-09   
52800.0   9.638e-09   
52900.0   5.348e-09   
53000.0   5.432e-09   
53100.0   2.636e-09   
53200.0   3.687e-09   
53300.0   5.263e-09   
53400.0   7.018e-09   
53500.0   8.591e-09   
53600.0   7.167e-09   
53700.0   1.202e-08   
53800.0   1.064e-08   
53900.0   1.286e-08   
54000.0   1.775e-08   
54100.0   1.987e-08   
54200.0   2.158e-08   
54300.0   2.241e-08   
54400.0   2.758e-08   
54500.0   2.736e-08   
54600.0   3.102e-08   
54700.0   3.642e-08   
54800.0   3.922e-08   
54900.0   3.887e-08   
55000.0   4.014e-08   
55100.0   3.958e-08   
55200.0   4.112e-08   
55300.0   4.177e-08   
55400.0   4.199e-08   
55500.0   4.122e-08   
55600.0   3.95e-08   
55700.0   3.917e-08   
55800.0   3.767e-08   
55900.0   3.56e-08   
56000.0   3.187e-08   
56100.0   2.817e-08   
56200.0   2.427e-08   
56300.0   2.093e-08   
56400.0   1.972e-08   
56500.0   2.134e-08   
56600.0   2.226e-08   
56700.0   2.315e-08   
56800.0   2.367e-08   
56900.0   3.266e-08   
57000.0   4.691e-08   
57100.0   6.091e-08   
57200.0   7.606e-08   
57300.0   9.471e-08   
57400.0   1.113e-07   
57500.0   1.409e-07   
57600.0   1.594e-07   
57700.0   1.88e-07   
57800.0   2.118e-07   
57900.0   2.248e-07   
58000.0   2.449e-07   
58100.0   2.743e-07   
58200.0   2.954e-07   
58300.0   3.119e-07   
58400.0   3.14e-07   
58500.0   3.299e-07   
58600.0   3.289e-07   
58700.0   3.26e-07   
58800.0   3.331e-07   
58900.0   3.572e-07   
59000.0   3.427e-07   
59100.0   3.295e-07   
59200.0   3.129e-07   
59300.0   3.047e-07   
59400.0   2.916e-07   
59500.0   2.823e-07   
59600.0   2.66e-07   
59700.0   2.439e-07   
59800.0   2.227e-07   
59900.0   2.03e-07   
60000.0   1.93e-07   
60100.0   1.748e-07   
60200.0   1.568e-07   
60300.0   1.396e-07   
60400.0   1.205e-07   
60500.0   1.03e-07   
60600.0   8.367e-08   
60700.0   7.468e-08   
60800.0   6.432e-08   
60900.0   5.261e-08   
61000.0   4.281e-08   
61100.0   3.336e-08   
61200.0   3.159e-08   
61300.0   3.527e-08   
61400.0   4.128e-08   
61500.0   4.977e-08   
61600.0   5.969e-08   
61700.0   7.211e-08   
61800.0   1.068e-07   
61900.0   1.557e-07   
62000.0   2.283e-07   
62100.0   3.423e-07   
62200.0   7.282e-07   
62300.0   6.293e-07   
62400.0   8.193e-07   
62500.0   1.099e-06   
62600.0   9.497e-07   
62700.0   2.039e-06   
62800.0   1.783e-06   
62900.0   9.839e-07   
63000.0   7.465e-07   
63100.0   2.597e-07   
63200.0   2.561e-07   
63300.0   2.336e-07   
63400.0   2.242e-07   
63500.0   1.989e-07   
63600.0   1.741e-07   
63700.0   1.449e-07   
63800.0   1.187e-07   
63900.0   1.022e-07   
64000.0   8.034e-08   
64100.0   6.634e-08   
64200.0   5.7e-08   
64300.0   5.779e-08   
64400.0   7.14e-08   
64500.0   9.287e-08   
64600.0   1.178e-07   
64700.0   1.354e-07   
64800.0   1.606e-07   
64900.0   1.868e-07   
65000.0   2.239e-07   
65100.0   2.513e-07   
65200.0   2.861e-07   
65300.0   3.199e-07   
65400.0   3.572e-07   
65500.0   3.985e-07   
65600.0   4.113e-07   
65700.0   4.484e-07   
65800.0   4.876e-07   
65900.0   5.635e-07   
66000.0   6.3e-07   
66100.0   6.942e-07   
66200.0   7.282e-07   
66300.0   8.376e-07   
66400.0   9.09e-07   
66500.0   9.935e-07   
66600.0   1.062e-06   
66700.0   1.132e-06   
66800.0   1.202e-06   
66900.0   1.188e-06   
67000.0   1.196e-06   
67100.0   1.209e-06   
67200.0   1.163e-06   
67300.0   1.091e-06   
67400.0   1.005e-06   
67500.0   8.506e-07   
67600.0   7.316e-07   
67700.0   6.582e-07   
67800.0   5.425e-07   
67900.0   5.197e-07   
68000.0   5.644e-07   
68100.0   6.812e-07   
68200.0   8.074e-07   
68300.0   9.473e-07   
68400.0   1.044e-06   
68500.0   1.2e-06   
68600.0   1.357e-06   
68700.0   1.507e-06   
68800.0   1.681e-06   
68900.0   1.908e-06   
69000.0   2.223e-06   
69100.0   2.399e-06   
69200.0   2.614e-06   
69300.0   2.888e-06   
69400.0   2.918e-06   
69500.0   3.04e-06   
69600.0   3.116e-06   
69700.0   3.177e-06   
69800.0   3.318e-06   
69900.0   3.21e-06   
70000.0   3.231e-06   
70100.0   3.346e-06   
70200.0   3.328e-06   
70300.0   3.247e-06   
70400.0   3.132e-06   
70500.0   2.919e-06   
70600.0   2.793e-06   
70700.0   2.791e-06   
70800.0   2.601e-06   
70900.0   2.611e-06   
71000.0   2.518e-06   
71100.0   2.373e-06   
71200.0   2.358e-06   
71300.0   2.177e-06   
71400.0   2.067e-06   
71500.0   1.945e-06   
71600.0   1.858e-06   
71700.0   1.678e-06   
71800.0   1.599e-06   
71900.0   1.449e-06   
72000.0   1.355e-06   
72100.0   1.242e-06   
72200.0   1.108e-06   
72300.0   1.047e-06   
72400.0   9.309e-07   
72500.0   8.795e-07   
72600.0   7.98e-07   
72700.0   7.143e-07   
72800.0   6.593e-07   
72900.0   5.935e-07   
73000.0   5.389e-07   
73100.0   4.867e-07   
73200.0   4.347e-07   
73300.0   3.788e-07   
73400.0   3.218e-07   
73500.0   2.631e-07   
73600.0   2.105e-07   
73700.0   1.6e-07   
73800.0   1.14e-07   
73900.0   1.117e-07   
74000.0   1.345e-07   
74100.0   1.704e-07   
74200.0   2.138e-07   
74300.0   2.711e-07   
74400.0   3.137e-07   
74500.0   3.571e-07   
74600.0   3.775e-07   
74700.0   3.938e-07   
74800.0   3.904e-07   
74900.0   3.995e-07   
75000.0   3.856e-07   
75100.0   3.602e-07   
75200.0   3.503e-07   
75300.0   3.236e-07   
75400.0   2.978e-07   
75500.0   2.691e-07   
75600.0   2.327e-07   
75700.0   2.077e-07   
75800.0   1.733e-07   
75900.0   1.516e-07   
76000.0   1.204e-07   
76100.0   1.085e-07   
76200.0   9.045e-08   
76300.0   8.352e-08   
76400.0   8.265e-08   
76500.0   8.278e-08   
76600.0   8.139e-08   
76700.0   8.317e-08   
76800.0   9.054e-08   
76900.0   9.45e-08   
77000.0   1.004e-07   
77100.0   1.02e-07   
77200.0   1.085e-07   
77300.0   1.183e-07   
77400.0   1.23e-07   
77500.0   1.307e-07   
77600.0   1.421e-07   
77700.0   1.459e-07   
77800.0   1.579e-07   
77900.0   1.641e-07   
78000.0   1.66e-07   
78100.0   1.727e-07   
78200.0   1.844e-07   
78300.0   1.934e-07   
78400.0   1.911e-07   
78500.0   1.941e-07   
78600.0   2.043e-07   
78700.0   2.003e-07   
78800.0   2.104e-07   
78900.0   2.169e-07   
79000.0   2.168e-07   
79100.0   2.261e-07   
79200.0   2.356e-07   
79300.0   2.462e-07   
79400.0   2.653e-07   
79500.0   2.767e-07   
79600.0   2.806e-07   
79700.0   3.066e-07   
79800.0   3.097e-07   
79900.0   3.236e-07   
80000.0   3.378e-07   
80100.0   3.393e-07   
80200.0   3.399e-07   
80300.0   3.471e-07   
80400.0   3.327e-07   
80500.0   3.321e-07   
80600.0   3.144e-07   
80700.0   3.058e-07   
80800.0   2.943e-07   
80900.0   2.773e-07   
81000.0   2.773e-07   
81100.0   2.733e-07   
81200.0   2.59e-07   
81300.0   2.574e-07   
81400.0   2.732e-07   
81500.0   2.64e-07   
81600.0   2.732e-07   
81700.0   2.861e-07   
81800.0   3.023e-07   
81900.0   3.227e-07   
82000.0   3.462e-07   
82100.0   3.789e-07   
82200.0   4.236e-07   
82300.0   4.805e-07   
82400.0   5.784e-07   
82500.0   6.442e-07   
82600.0   7.581e-07   
82700.0   9.414e-07   
82800.0   1.01e-06   
82900.0   1.199e-06   
83000.0   1.465e-06   
83100.0   9.788e-08   
83200.0   8.156e-08   
83300.0   7.693e-08   
83400.0   6.748e-08   
83500.0   6.59e-08   
83600.0   6.708e-08   
83700.0   6.291e-08   
83800.0   6.179e-08   
83900.0   6.28e-08   
84000.0   5.972e-08   
84100.0   5.438e-08   
84200.0   5.155e-08   
84300.0   4.837e-08   
84400.0   4.732e-08   
84500.0   4.504e-08   
84600.0   4.131e-08   
84700.0   3.957e-08   
84800.0   3.882e-08   
84900.0   3.827e-08   
85000.0   3.783e-08   
85100.0   3.798e-08   
85200.0   3.933e-08   
85300.0   3.842e-08   
85400.0   4.065e-08   
85500.0   3.997e-08   
85600.0   4.201e-08   
85700.0   4.137e-08   
85800.0   4.199e-08   
85900.0   4.281e-08   
86000.0   4.354e-08   
86100.0   4.438e-08   
86200.0   4.647e-08   
86300.0   4.711e-08   
86400.0   4.757e-08   
86500.0   4.705e-08   
86600.0   4.866e-08   
86700.0   4.98e-08   
86800.0   5.08e-08   
86900.0   5.187e-08   
87000.0   5.273e-08   
87100.0   5.314e-08   
87200.0   5.399e-08   
87300.0   5.461e-08   
87400.0   5.296e-08   
87500.0   5.432e-08   
87600.0   5.489e-08   
87700.0   5.433e-08   
87800.0   5.554e-08   
87900.0   5.681e-08   
88000.0   5.856e-08   
88100.0   6.181e-08   
88200.0   6.357e-08   
88300.0   6.38e-08   
88400.0   6.494e-08   
88500.0   6.808e-08   
88600.0   6.811e-08   
88700.0   6.995e-08   
88800.0   7.189e-08   
88900.0   7.434e-08   
89000.0   7.918e-08   
89100.0   8.123e-08   
89200.0   8.514e-08   
89300.0   8.804e-08   
89400.0   9.019e-08   
89500.0   9.39e-08   
89600.0   9.614e-08   
89700.0   9.898e-08   
89800.0   1.01e-07   
89900.0   1.019e-07   
90000.0   1.004e-07   
90100.0   1.043e-07   
90200.0   1.08e-07   
90300.0   1.088e-07   
90400.0   1.077e-07   
90500.0   1.11e-07   
90600.0   1.126e-07   
90700.0   1.141e-07   
90800.0   1.149e-07   
90900.0   1.158e-07   
91000.0   1.162e-07   
91100.0   1.158e-07   
91200.0   1.151e-07   
91300.0   1.162e-07   
91400.0   1.128e-07   
91500.0   1.12e-07   
91600.0   1.122e-07   
91700.0   1.114e-07   
91800.0   1.117e-07   
91900.0   1.095e-07   
92000.0   1.061e-07   
92100.0   1.002e-07   
92200.0   9.912e-08   
92300.0   9.508e-08   
92400.0   8.822e-08   
92500.0   8.416e-08   
92600.0   8.156e-08   
92700.0   7.926e-08   
92800.0   7.475e-08   
92900.0   7.31e-08   
93000.0   7.218e-08   
93100.0   7.035e-08   
93200.0   6.856e-08   
93300.0   6.598e-08   
93400.0   6.6e-08   
93500.0   6.514e-08   
93600.0   6.326e-08   
93700.0   6.19e-08   
93800.0   6.121e-08   
93900.0   6.056e-08   
94000.0   5.991e-08   
94100.0   5.928e-08   
94200.0   5.868e-08   
94300.0   5.809e-08   
94400.0   5.759e-08   
94500.0   5.715e-08   
94600.0   5.633e-08   
94700.0   5.573e-08   
94800.0   5.489e-08   
94900.0   5.421e-08   
95000.0   5.333e-08   
95100.0   5.278e-08   
95200.0   5.212e-08   
95300.0   5.134e-08   
95400.0   5.096e-08   
95500.0   5.05e-08   
95600.0   5.015e-08   
95700.0   4.905e-08   
95800.0   5.007e-08   
95900.0   4.98e-08   
96000.0   4.88e-08   
96100.0   4.853e-08   
96200.0   4.819e-08   
96300.0   4.796e-08   
96400.0   4.816e-08   
96500.0   4.78e-08   
96600.0   4.869e-08   
96700.0   4.902e-08   
96800.0   4.892e-08   
96900.0   4.817e-08   
97000.0   4.787e-08   
97100.0   4.828e-08   
97200.0   4.763e-08   
97300.0   4.694e-08   
97400.0   4.662e-08   
97500.0   4.641e-08   
97600.0   4.703e-08   
97700.0   4.71e-08   
97800.0   4.675e-08   
97900.0   4.675e-08   
98000.0   4.681e-08   
98100.0   4.666e-08   
98200.0   4.657e-08   
98300.0   4.647e-08   
98400.0   4.666e-08   
98500.0   4.681e-08   
98600.0   4.671e-08   
98700.0   4.615e-08   
98800.0   4.608e-08   
98900.0   4.638e-08   
99000.0   4.61e-08   
99100.0   4.573e-08   
99200.0   4.655e-08   
99300.0   4.646e-08   
99400.0   4.645e-08   
99500.0   4.637e-08   
99600.0   4.661e-08   
99700.0   4.669e-08   
99800.0   4.664e-08   
99900.0   4.633e-08   
100000.0   4.639e-08   
100100.0   4.647e-08   
100200.0   4.666e-08   
100300.0   4.677e-08   
100400.0   4.698e-08   
100500.0   4.72e-08   
100600.0   4.712e-08   
100700.0   4.712e-08   
100800.0   4.699e-08   
100900.0   4.611e-08   
101000.0   4.696e-08   
101100.0   4.649e-08   
101200.0   4.63e-08   
101300.0   4.605e-08   
101400.0   4.584e-08   
101500.0   4.572e-08   
101600.0   4.537e-08   
101700.0   4.509e-08   
101800.0   4.491e-08   
101900.0   4.482e-08   
102000.0   4.459e-08   
102100.0   4.448e-08   
102200.0   4.427e-08   
102300.0   4.438e-08   
102400.0   4.394e-08   
102500.0   4.382e-08   
102600.0   4.382e-08   
102700.0   4.335e-08   
102800.0   4.318e-08   
102900.0   4.299e-08   
103000.0   4.32e-08   
103100.0   4.349e-08   
103200.0   4.369e-08   
103300.0   4.388e-08   
103400.0   4.408e-08   
103500.0   4.428e-08   
103600.0   4.505e-08   
103700.0   4.555e-08   
103800.0   4.542e-08   
103900.0   4.516e-08   
104000.0   4.465e-08   
104100.0   4.444e-08   
104200.0   4.454e-08   
104300.0   4.438e-08   
104400.0   4.413e-08   
104500.0   4.394e-08   
104600.0   4.404e-08   
104700.0   4.404e-08   
104800.0   4.324e-08   
104900.0   4.386e-08   
105000.0   4.434e-08   
105100.0   4.444e-08   
105200.0   4.466e-08   
105300.0   4.514e-08   
105400.0   4.544e-08   
105500.0   4.568e-08   
105600.0   4.534e-08   
105700.0   4.504e-08   
105800.0   4.506e-08   
105900.0   4.498e-08   
106000.0   4.481e-08   
106100.0   4.474e-08   
106200.0   4.457e-08   
106300.0   4.438e-08   
106400.0   4.472e-08   
106500.0   4.441e-08   
106600.0   4.409e-08   
106700.0   4.385e-08   
106800.0   4.371e-08   
106900.0   4.344e-08   
107000.0   4.325e-08   
107100.0   4.301e-08   
107200.0   4.273e-08   
107300.0   4.267e-08   
107400.0   4.268e-08   
107500.0   4.269e-08   
107600.0   4.229e-08   
107700.0   4.196e-08   
107800.0   4.232e-08   
107900.0   4.232e-08   
108000.0   4.22e-08   
108100.0   4.202e-08   
108200.0   4.192e-08   
108300.0   4.144e-08   
108400.0   4.154e-08   
108500.0   4.181e-08   
108600.0   4.204e-08   
108700.0   4.208e-08   
108800.0   4.197e-08   
108900.0   4.2e-08   
109000.0   4.208e-08   
109100.0   4.277e-08   
109200.0   4.306e-08   
109300.0   4.324e-08   
109400.0   4.362e-08   
109500.0   4.412e-08   
109600.0   4.456e-08   
109700.0   4.503e-08   
109800.0   4.555e-08   
109900.0   4.625e-08   
110000.0   4.73e-08   
110100.0   4.849e-08   
110200.0   4.969e-08   
110300.0   5.088e-08   
110400.0   5.297e-08   
110500.0   5.553e-08   
110600.0   5.827e-08   
110700.0   6.148e-08   
110800.0   6.501e-08   
110900.0   6.963e-08   
111000.0   7.481e-08   
111100.0   4.757e-08   
111200.0   4.302e-08   
111300.0   3.848e-08   
111400.0   3.302e-08   
111500.0   2.952e-08   
111600.0   2.642e-08   
111700.0   2.377e-08   
111800.0   2.112e-08   
111900.0   1.896e-08   
112000.0   1.75e-08   
112100.0   1.614e-08   
112200.0   1.493e-08   
112300.0   1.392e-08   
112400.0   1.321e-08   
112500.0   1.243e-08   
112600.0   1.178e-08   
112700.0   1.103e-08   
112800.0   1.065e-08   
112900.0   1.055e-08   
113000.0   1.027e-08   
113100.0   1.003e-08   
113200.0   9.637e-09   
113300.0   9.575e-09   
113400.0   9.545e-09   
113500.0   9.629e-09   
113600.0   9.669e-09   
113700.0   9.652e-09   
113800.0   9.525e-09   
113900.0   9.73e-09   
114000.0   9.911e-09   
114100.0   9.989e-09   
114200.0   1.017e-08   
114300.0   1.026e-08   
114400.0   1.044e-08   
114500.0   1.052e-08   
114600.0   1.074e-08   
114700.0   1.097e-08   
114800.0   1.107e-08   
114900.0   1.117e-08   
115000.0   1.136e-08   
115100.0   1.161e-08   
115200.0   1.182e-08   
115300.0   1.2e-08   
115400.0   1.209e-08   
115500.0   1.23e-08   
115600.0   1.241e-08   
115700.0   1.251e-08   
115800.0   1.281e-08   
115900.0   1.298e-08   
116000.0   1.316e-08   
116100.0   1.335e-08   
116200.0   1.358e-08   
116300.0   1.386e-08   
116400.0   1.4e-08   
116500.0   1.431e-08   
116600.0   1.468e-08   
116700.0   1.494e-08   
116800.0   1.526e-08   
116900.0   1.554e-08   
117000.0   1.587e-08   
117100.0   1.624e-08   
117200.0   1.662e-08   
117300.0   1.693e-08   
117400.0   1.715e-08   
117500.0   1.753e-08   
117600.0   1.788e-08   
117700.0   1.808e-08   
117800.0   1.838e-08   
117900.0   1.877e-08   
118000.0   1.915e-08   
118100.0   1.971e-08   
118200.0   2.004e-08   
118300.0   2.048e-08   
118400.0   2.09e-08   
118500.0   2.129e-08   
118600.0   2.162e-08   
118700.0   2.182e-08   
118800.0   2.244e-08   
118900.0   2.309e-08   
119000.0   2.345e-08   
119100.0   2.378e-08   
119200.0   2.419e-08   
119300.0   2.443e-08   
119400.0   2.436e-08   
119500.0   2.467e-08   
119600.0   2.499e-08   
119700.0   2.53e-08   
119800.0   2.552e-08   
119900.0   2.584e-08   
120000.0   2.607e-08   
120100.0   2.671e-08   
120200.0   2.687e-08   
120300.0   2.687e-08   
120400.0   2.629e-08   
120500.0   2.642e-08   
120600.0   2.645e-08   
120700.0   2.658e-08   
120800.0   2.67e-08   
120900.0   2.681e-08   
121000.0   2.69e-08   
121100.0   2.698e-08   
121200.0   2.696e-08   
121300.0   2.705e-08   
121400.0   2.714e-08   
121500.0   2.724e-08   
121600.0   2.734e-08   
121700.0   2.815e-08   
121800.0   2.833e-08   
121900.0   2.826e-08   
122000.0   2.776e-08   
122100.0   2.797e-08   
122200.0   2.806e-08   
122300.0   2.861e-08   
122400.0   2.873e-08   
122500.0   2.867e-08   
122600.0   2.857e-08   
122700.0   2.845e-08   
122800.0   2.827e-08   
122900.0   2.798e-08   
123000.0   2.732e-08   
123100.0   2.711e-08   
123200.0   2.7e-08   
123300.0   2.68e-08   
123400.0   2.718e-08   
123500.0   2.703e-08   
123600.0   2.665e-08   
123700.0   2.571e-08   
123800.0   2.543e-08   
123900.0   2.514e-08   
124000.0   2.485e-08   
124100.0   2.49e-08   
124200.0   2.476e-08   
124300.0   2.444e-08   
124400.0   2.39e-08   
124500.0   2.345e-08   
124600.0   2.316e-08   
124700.0   2.316e-08   
124800.0   2.288e-08   
124900.0   2.251e-08   
125000.0   2.219e-08   
125100.0   2.171e-08   
125200.0   2.087e-08   
125300.0   2.055e-08   
125400.0   2.024e-08   
125500.0   2.026e-08   
125600.0   1.997e-08   
125700.0   1.964e-08   
125800.0   1.93e-08   
125900.0   1.893e-08   
126000.0   1.846e-08   
126100.0   1.818e-08   
126200.0   1.801e-08   
126300.0   1.776e-08   
126400.0   1.747e-08   
126500.0   1.716e-08   
126600.0   1.681e-08   
126700.0   1.616e-08   
126800.0   1.586e-08   
126900.0   1.556e-08   
127000.0   1.516e-08   
127100.0   1.497e-08   
127200.0   1.486e-08   
127300.0   1.486e-08   
127400.0   1.476e-08   
127500.0   1.466e-08   
127600.0   1.466e-08   
127700.0   1.456e-08   
127800.0   1.486e-08   
127900.0   1.515e-08   
128000.0   1.555e-08   
128100.0   1.594e-08   
128200.0   1.643e-08   
128300.0   1.692e-08   
128400.0   1.791e-08   
128500.0   1.924e-08   
128600.0   2.085e-08   
128700.0   2.268e-08   
128800.0   2.478e-08   
128900.0   2.728e-08   
129000.0   3.026e-08   
129100.0   3.303e-08   
129200.0   3.618e-08   
129300.0   4.007e-08   
129400.0   4.488e-08   
129500.0   5.096e-08   
129600.0   5.941e-08   
129700.0   6.789e-08   
129800.0   7.598e-08   
129900.0   8.587e-08   
130000.0   9.815e-08   
130100.0   1.149e-07   
130200.0   1.368e-07   
130300.0   1.665e-07   
130400.0   1.82e-07   
130500.0   1.99e-07   
130600.0   2.194e-07   
130700.0   2.435e-07   
130800.0   2.744e-07   
130900.0   3.172e-07   
131000.0   2.93e-07   
131100.0   3.437e-07   
131200.0   3.403e-07   
131300.0   3.385e-07   
131400.0   3.342e-07   
131500.0   3.288e-07   
131600.0   3.222e-07   
131700.0   3.097e-07   
131800.0   2.959e-07   
131900.0   2.829e-07   
132000.0   1.918e-07   
132100.0   5.065e-07   
132200.0   5.094e-07   
132300.0   5.139e-07   
132400.0   5.159e-07   
132500.0   5.18e-07   
132600.0   5.197e-07   
132700.0   5.197e-07   
132800.0   5.189e-07   
132900.0   5.193e-07   
133000.0   5.193e-07   
133100.0   5.195e-07   
133200.0   5.191e-07   
133300.0   5.177e-07   
133400.0   5.149e-07   
133500.0   4.972e-07   
133600.0   5.259e-07   
133700.0   5.249e-07   
133800.0   5.058e-07   
133900.0   5.091e-07   
134000.0   5.06e-07   
134100.0   5.185e-07   
134200.0   5.179e-07   
134300.0   5.161e-07   
134400.0   4.968e-07   
134500.0   4.999e-07   
134600.0   5.179e-07   
134700.0   5.181e-07   
134800.0   5.196e-07   
134900.0   5.199e-07   
135000.0   5.205e-07   
135100.0   5.23e-07   
135200.0   5.246e-07   
135300.0   5.272e-07   
135400.0   5.289e-07   
135500.0   5.317e-07   
135600.0   5.346e-07   
135700.0   5.364e-07   
135800.0   5.225e-07   
135900.0   5.301e-07   
136000.0   5.316e-07   
136100.0   5.298e-07   
136200.0   5.423e-07   
136300.0   5.431e-07   
136400.0   5.428e-07   
136500.0   5.288e-07   
136600.0   5.322e-07   
136700.0   5.333e-07   
136800.0   5.336e-07   
136900.0   5.334e-07   
137000.0   5.327e-07   
137100.0   5.314e-07   
137200.0   5.318e-07   
137300.0   5.346e-07   
137400.0   5.367e-07   
137500.0   5.375e-07   
137600.0   5.374e-07   
137700.0   5.306e-07   
137800.0   5.394e-07   
137900.0   5.39e-07   
138000.0   5.397e-07   
138100.0   5.404e-07   
138200.0   5.422e-07   
138300.0   5.428e-07   
138400.0   5.435e-07   
138500.0   5.45e-07   
138600.0   5.454e-07   
138700.0   5.466e-07   
138800.0   5.476e-07   
138900.0   5.484e-07   
139000.0   5.493e-07   
139100.0   5.501e-07   
139200.0   5.429e-07   
139300.0   5.466e-07   
139400.0   5.47e-07   
139500.0   5.39e-07   
139600.0   5.538e-07   
139700.0   5.538e-07   
139800.0   5.55e-07   
139900.0   5.553e-07   
140000.0   5.557e-07   
140100.0   5.504e-07   
140200.0   5.539e-07   
140300.0   5.529e-07   
140400.0   5.569e-07   
140500.0   5.574e-07   
140600.0   5.583e-07   
140700.0   5.598e-07   
140800.0   5.512e-07   
140900.0   5.537e-07   
141000.0   5.591e-07   
141100.0   5.556e-07   
141200.0   5.525e-07   
141300.0   5.497e-07   
141400.0   5.413e-07   
141500.0   5.423e-07   
141600.0   5.412e-07   
141700.0   5.386e-07   
141800.0   5.3e-07   
141900.0   5.373e-07   
142000.0   5.358e-07   
142100.0   5.259e-07   
142200.0   5.287e-07   
142300.0   5.287e-07   
142400.0   5.282e-07   
142500.0   5.284e-07   
142600.0   5.298e-07   
142700.0   5.307e-07   
142800.0   5.308e-07   
142900.0   5.289e-07   
143000.0   5.273e-07   
143100.0   5.26e-07   
143200.0   5.265e-07   
143300.0   5.283e-07   
143400.0   5.291e-07   
143500.0   5.295e-07   
143600.0   5.264e-07   
143700.0   5.332e-07   
143800.0   5.351e-07   
143900.0   5.359e-07   
144000.0   5.375e-07   
144100.0   5.392e-07   
144200.0   5.407e-07   
144300.0   5.433e-07   
144400.0   5.283e-07   
144500.0   5.397e-07   
144600.0   5.49e-07   
144700.0   5.506e-07   
144800.0   5.532e-07   
144900.0   5.558e-07   
145000.0   5.545e-07   
145100.0   5.617e-07   
145200.0   5.654e-07   
145300.0   5.693e-07   
145400.0   5.718e-07   
145500.0   5.663e-07   
145600.0   5.782e-07   
145700.0   5.82e-07   
145800.0   5.822e-07   
145900.0   5.924e-07   
146000.0   5.989e-07   
146100.0   6.021e-07   
146200.0   6.046e-07   
146300.0   6.041e-07   
146400.0   6.072e-07   
146500.0   6.171e-07   
146600.0   6.228e-07   
146700.0   6.282e-07   
146800.0   6.326e-07   
146900.0   6.339e-07   
147000.0   6.356e-07   
147100.0   6.388e-07   
147200.0   6.43e-07   
147300.0   6.473e-07   
147400.0   6.496e-07   
147500.0   6.52e-07   
147600.0   6.555e-07   
147700.0   6.522e-07   
147800.0   6.604e-07   
147900.0   6.629e-07   
148000.0   6.653e-07   
148100.0   6.676e-07   
148200.0   6.701e-07   
148300.0   6.702e-07   
148400.0   6.714e-07   
148500.0   6.698e-07   
148600.0   6.795e-07   
148700.0   6.82e-07   
148800.0   6.825e-07   
148900.0   6.805e-07   
149000.0   6.773e-07   
149100.0   6.732e-07   
149200.0   6.737e-07   
149300.0   6.733e-07   
149400.0   6.644e-07   
149500.0   6.785e-07   
149600.0   6.804e-07   
149700.0   6.817e-07   
149800.0   6.808e-07   
149900.0   6.801e-07   
150000.0   6.789e-07   
150100.0   6.787e-07   
150200.0   6.8e-07   
150300.0   6.818e-07   
150400.0   6.829e-07   
150500.0   6.837e-07   
150600.0   6.842e-07   
150700.0   6.85e-07   
150800.0   6.844e-07   
150900.0   6.82e-07   
151000.0   6.791e-07   
151100.0   6.7e-07   
151200.0   6.764e-07   
151300.0   6.675e-07   
151400.0   6.744e-07   
151500.0   6.748e-07   
151600.0   6.734e-07   
151700.0   6.717e-07   
151800.0   6.676e-07   
151900.0   6.597e-07   
152000.0   6.679e-07   
152100.0   6.667e-07   
152200.0   6.655e-07   
152300.0   6.652e-07   
152400.0   6.641e-07   
152500.0   6.629e-07   
152600.0   6.627e-07   
152700.0   6.626e-07   
152800.0   6.623e-07   
152900.0   6.622e-07   
153000.0   6.621e-07   
153100.0   6.533e-07   
153200.0   6.555e-07   
153300.0   6.543e-07   
153400.0   6.461e-07   
153500.0   6.623e-07   
153600.0   6.623e-07   
153700.0   6.634e-07   
153800.0   6.514e-07   
153900.0   6.546e-07   
154000.0   6.537e-07   
154100.0   6.512e-07   
154200.0   6.524e-07   
154300.0   6.556e-07   
154400.0   6.598e-07   
154500.0   6.627e-07   
154600.0   6.653e-07   
154700.0   6.652e-07   
154800.0   6.604e-07   
154900.0   6.819e-07   
155000.0   6.843e-07   
155100.0   6.868e-07   
155200.0   6.748e-07   
155300.0   6.822e-07   
155400.0   6.893e-07   
155500.0   6.965e-07   
155600.0   7.014e-07   
155700.0   7.05e-07   
155800.0   7.057e-07   
155900.0   7.272e-07   
156000.0   7.322e-07   
156100.0   7.37e-07   
156200.0   7.427e-07   
156300.0   7.474e-07   
156400.0   7.528e-07   
156500.0   7.458e-07   
156600.0   7.534e-07   
156700.0   7.586e-07   
156800.0   7.63e-07   
156900.0   7.675e-07   
157000.0   7.733e-07   
157100.0   7.798e-07   
157200.0   7.851e-07   
157300.0   7.89e-07   
157400.0   7.923e-07   
157500.0   7.951e-07   
157600.0   7.965e-07   
157700.0   7.933e-07   
157800.0   8.149e-07   
157900.0   8.185e-07   
158000.0   8.218e-07   
158100.0   8.263e-07   
158200.0   8.05e-07   
158300.0   8.152e-07   
158400.0   8.161e-07   
158500.0   8.394e-07   
158600.0   8.428e-07   
158700.0   8.46e-07   
158800.0   8.494e-07   
158900.0   8.526e-07   
159000.0   8.56e-07   
159100.0   8.592e-07   
159200.0   8.437e-07   
159300.0   8.513e-07   
159400.0   8.531e-07   
159500.0   8.487e-07   
159600.0   8.751e-07   
159700.0   8.788e-07   
159800.0   8.823e-07   
159900.0   8.858e-07   
160000.0   8.893e-07   
160100.0   8.943e-07   
160200.0   8.981e-07   
160300.0   9.022e-07   
160400.0   9.061e-07   
160500.0   9.103e-07   
160600.0   9.144e-07   
160700.0   9.186e-07   
160800.0   9.23e-07   
160900.0   9.142e-07   
161000.0   9.249e-07   
161100.0   9.293e-07   
161200.0   9.42e-07   
161300.0   9.431e-07   
161400.0   9.438e-07   
161500.0   9.544e-07   
161600.0   9.539e-07   
161700.0   9.529e-07   
161800.0   9.619e-07   
161900.0   9.605e-07   
162000.0   9.613e-07   
162100.0   9.644e-07   
162200.0   9.785e-07   
162300.0   9.818e-07   
162400.0   9.845e-07   
162500.0   9.862e-07   
162600.0   9.871e-07   
162700.0   9.971e-07   
162800.0   9.959e-07   
162900.0   9.933e-07   
163000.0   9.887e-07   
163100.0   9.758e-07   
163200.0   9.896e-07   
163300.0   9.895e-07   
163400.0   9.894e-07   
163500.0   9.832e-07   
163600.0   9.9e-07   
163700.0   9.914e-07   
163800.0   9.87e-07   
163900.0   9.9e-07   
164000.0   9.905e-07   
164100.0   9.909e-07   
164200.0   9.913e-07   
164300.0   1.002e-06   
164400.0   1.003e-06   
164500.0   1.003e-06   
164600.0   1.004e-06   
164700.0   1.004e-06   
164800.0   1.005e-06   
164900.0   1.005e-06   
165000.0   1.016e-06   
165100.0   1.016e-06   
165200.0   1.016e-06   
165300.0   1.016e-06   
165400.0   1.027e-06   
165500.0   1.027e-06   
165600.0   1.037e-06   
165700.0   1.037e-06   
165800.0   1.036e-06   
165900.0   1.05e-06   
166000.0   1.055e-06   
166100.0   1.064e-06   
166200.0   1.06e-06   
166300.0   1.057e-06   
166400.0   1.072e-06   
166500.0   1.081e-06   
166600.0   1.075e-06   
166700.0   1.088e-06   
166800.0   1.09e-06   
166900.0   1.107e-06   
167000.0   1.116e-06   
167100.0   1.124e-06   
167200.0   1.133e-06   
167300.0   1.142e-06   
167400.0   1.15e-06   
167500.0   1.159e-06   
167600.0   1.168e-06   
167700.0   1.177e-06   
167800.0   1.186e-06   
167900.0   1.194e-06   
168000.0   1.21e-06   
168100.0   1.22e-06   
168200.0   1.217e-06   
168300.0   1.24e-06   
168400.0   1.26e-06   
168500.0   1.269e-06   
168600.0   1.277e-06   
168700.0   1.297e-06   
168800.0   1.305e-06   
168900.0   1.314e-06   
169000.0   1.34e-06   
169100.0   1.358e-06   
169200.0   1.379e-06   
169300.0   1.388e-06   
169400.0   1.396e-06   
169500.0   1.413e-06   
169600.0   1.42e-06   
169700.0   1.441e-06   
169800.0   1.463e-06   
169900.0   1.475e-06   
170000.0   1.497e-06   
170100.0   1.508e-06   
170200.0   1.528e-06   
170300.0   1.547e-06   
170400.0   1.554e-06   
170500.0   1.571e-06   
170600.0   1.586e-06   
170700.0   1.602e-06   
170800.0   1.613e-06   
170900.0   1.639e-06   
171000.0   1.665e-06   
171100.0   1.688e-06   
171200.0   1.705e-06   
171300.0   1.71e-06   
171400.0   1.714e-06   
171500.0   1.724e-06   
171600.0   1.744e-06   
171700.0   1.763e-06   
171800.0   1.822e-06   
171900.0   1.848e-06   
172000.0   1.877e-06   
172100.0   1.891e-06   
172200.0   1.902e-06   
172300.0   1.921e-06   
172400.0   1.922e-06   
172500.0   1.887e-06   
172600.0   1.898e-06   
172700.0   1.908e-06   
172800.0   1.929e-06   
172900.0   1.94e-06   
173000.0   1.951e-06   
173100.0   2.006e-06   
173200.0   2.055e-06   
173300.0   2.073e-06   
173400.0   2.078e-06   
173500.0   2.065e-06   
173600.0   2.038e-06   
173700.0   2.049e-06   
173800.0   2.06e-06   
173900.0   2.081e-06   
174000.0   2.147e-06   
174100.0   2.185e-06   
174200.0   2.201e-06   
174300.0   2.177e-06   
174400.0   2.164e-06   
174500.0   2.185e-06   
174600.0   2.251e-06   
174700.0   2.316e-06   
174800.0   2.353e-06   
174900.0   2.383e-06   
175000.0   2.407e-06   
175100.0   2.426e-06   
175200.0   2.452e-06   
175300.0   2.485e-06   
175400.0   2.511e-06   
175500.0   2.536e-06   
175600.0   2.495e-06   
175700.0   2.533e-06   
175800.0   2.58e-06   
175900.0   2.628e-06   
176000.0   2.702e-06   
176100.0   2.804e-06   
176200.0   2.867e-06   
176300.0   2.929e-06   
176400.0   2.974e-06   
176500.0   3.034e-06   
176600.0   3.088e-06   
176700.0   3.14e-06   
176800.0   3.21e-06   
176900.0   3.275e-06   
177000.0   3.349e-06   
177100.0   3.404e-06   
177200.0   3.433e-06   
177300.0   3.517e-06   
177400.0   3.602e-06   
177500.0   3.695e-06   
177600.0   3.789e-06   
177700.0   3.911e-06   
177800.0   4.11e-06   
177900.0   4.283e-06   
178000.0   4.443e-06   
178100.0   4.588e-06   
178200.0   4.735e-06   
178300.0   4.873e-06   
178400.0   5.029e-06   
178500.0   5.2e-06   
178600.0   5.382e-06   
178700.0   5.589e-06   
178800.0   5.812e-06   
178900.0   6.073e-06   
179000.0   6.358e-06   
179100.0   6.65e-06   
179200.0   6.916e-06   
179300.0   7.275e-06   
179400.0   7.701e-06   
179500.0   8.134e-06   
179600.0   8.779e-06   
179700.0   9.43e-06   
179800.0   1.011e-05   
179900.0   1.095e-05   
180000.0   1.177e-05   
180100.0   1.265e-05   
180200.0   1.338e-05   
180300.0   1.408e-05   
180400.0   1.529e-05   
180500.0   1.649e-05   
180600.0   1.785e-05   
180700.0   1.945e-05   
180800.0   2.127e-05   
180900.0   2.36e-05   
181000.0   2.601e-05   
181100.0   2.983e-05   
181200.0   3.436e-05   
181300.0   4.017e-05   
181400.0   4.016e-05   
181500.0   4.141e-05   
181600.0   4.061e-05   
181700.0   3.966e-05   
181800.0   3.841e-05   
181900.0   3.708e-05   
182000.0   3.547e-05   
182100.0   3.404e-05   
182200.0   2.441e-05   
182300.0   2.955e-05   
182400.0   3.169e-05   
182500.0   3.265e-05   
182600.0   3.249e-05   
182700.0   2.369e-05   
182800.0   1.165e-05   
182900.0   1.43e-05   
183000.0   1.122e-05   
183100.0   8.964e-06   
183200.0   7.249e-06   
183300.0   5.916e-06   
183400.0   4.949e-06   
183500.0   4.201e-06   
183600.0   3.617e-06   
183700.0   3.174e-06   
183800.0   2.233e-06   
183900.0   2.671e-06   
184000.0   1.955e-06   
184100.0   2.225e-06   
184200.0   2.554e-06   
184300.0   2.774e-06   
184400.0   2.849e-06   
184500.0   2.705e-06   
184600.0   2.323e-06   
184700.0   1.77e-06   
184800.0   1.198e-06   
184900.0   1.283e-06   
185000.0   2.265e-06   
185100.0   3.362e-06   
185200.0   4.284e-06   
185300.0   4.884e-06   
185400.0   4.898e-06   
185500.0   4.002e-06   
185600.0   8.544e-07   
185700.0   4.137e-07   
185800.0   4.415e-07   
185900.0   4.735e-07   
186000.0   5.061e-07   
186100.0   5.44e-07   
186200.0   4.724e-06   
186300.0   7.168e-06   
186400.0   8.232e-06   
186500.0   7.953e-06   
186600.0   6.348e-06   
186700.0   2.625e-06   
186800.0   8.805e-07   
186900.0   9.245e-07   
187000.0   9.588e-07   
187100.0   2.22e-06   
187200.0   7.044e-06   
187300.0   1.023e-05   
187400.0   1.267e-05   
187500.0   1.451e-05   
187600.0   1.591e-05   
187700.0   1.695e-05   
187800.0   1.761e-05   
187900.0   1.794e-05   
188000.0   1.795e-05   
188100.0   1.773e-05   
188200.0   1.735e-05   
188300.0   1.695e-05   
188400.0   1.69e-05   
188500.0   1.731e-05   
188600.0   1.81e-05   
188700.0   1.927e-05   
188800.0   2.076e-05   
188900.0   2.221e-05   
189000.0   2.389e-05   
189100.0   2.564e-05   
189200.0   2.752e-05   
189300.0   2.925e-05   
189400.0   3.092e-05   
189500.0   3.242e-05   
189600.0   3.345e-05   
189700.0   3.398e-05   
189800.0   3.323e-05   
189900.0   3.075e-05   
190000.0   2.578e-05   
190100.0   1.673e-05   
190200.0   8.603e-06   
190300.0   9.36e-06   
190400.0   1.019e-05   
190500.0   1.842e-05   
190600.0   3.458e-05   
190700.0   0.0001154   
190800.0   0.0002706   
190900.0   0.0005038   
191000.0   0.0006935   
191100.0   0.0008426   
191200.0   0.0008877   
191300.0   0.0009056   
191400.0   0.0008691   
191500.0   0.0008133   
191600.0   0.0007175   
191700.0   0.0005891   
191800.0   0.000434   
191900.0   0.000236   
192000.0   0.0001031   
192100.0   5.896e-05   
192200.0   2.267e-05   
192300.0   5.489e-05   
192400.0   6.015e-05   
192500.0   5.46e-05   
192600.0   0.0001003   
192700.0   0.0001423   
192800.0   0.0001819   
192900.0   0.000218   
193000.0   5.022e-05   
193100.0   0.0002479   
193200.0   0.0002711   
193300.0   0.0003065   
193400.0   0.0003496   
193500.0   0.000407   
193600.0   0.0004653   
193700.0   0.0005888   
193800.0   0.0007319   
193900.0   0.0009816   
194000.0   0.00128   
194100.0   0.001585   
194200.0   0.001863   
194300.0   0.002095   
194400.0   0.002263   
194500.0   0.002415   
194600.0   0.002524   
194700.0   0.002631   
194800.0   0.002714   
194900.0   0.002796   
195000.0   0.002916   
195100.0   0.003063   
195200.0   0.003287   
195300.0   0.003589   
195400.0   0.00397   
195500.0   0.004483   
195600.0   0.00506   
195700.0   0.005869   
195800.0   0.006723   
195900.0   0.007881   
196000.0   0.0091   
196100.0   0.01064   
196200.0   0.01223   
196300.0   0.01402   
196400.0   0.01601   
196500.0   0.0183   
196600.0   0.02079   
196700.0   0.02348   
196800.0   0.02657   
196900.0   0.02986   
197000.0   0.03394   
197100.0   0.03812   
197200.0   0.04318   
197300.0   0.04845   
197400.0   0.0546   
197500.0   0.06084   
197600.0   0.06778   
197700.0   0.07513   
197800.0   0.08297   
197900.0   0.09151   
198000.0   0.1003   
198100.0   0.1113   
198200.0   0.1222   
198300.0   0.1342   
198400.0   0.1461   
198500.0   0.1581   
198600.0   0.1701   
198700.0   0.1801   
198800.0   0.1901   
198900.0   0.1992   
199000.0   0.2073   
199100.0   0.2144   
199200.0   0.2215   
199300.0   0.2275   
199400.0   0.2336   
199500.0   0.2386   
199600.0   0.2427   
199700.0   0.2447   
199800.0   0.2468   
199900.0   0.2468   
200000.0   0.2469   
200100.0   0.2459   
200200.0   0.2459   
200300.0   0.246   
200400.0   0.246   
200500.0   0.247   
200600.0   0.2481   
200700.0   0.2491   
200800.0   0.2501   
200900.0   0.2511   
201000.0   0.2511   
201100.0   0.2512   
201200.0   0.2522   
201300.0   0.2542   
201400.0   0.2572   
201500.0   0.2602   
201600.0   0.2642   
201700.0   0.2672   
201800.0   0.2701   
201900.0   0.2721   
202000.0   0.2721   
202100.0   0.2731   
202200.0   0.2721   
202300.0   0.2721   
202400.0   0.2711   
202500.0   0.2701   
202600.0   0.2692   
202700.0   0.2692   
202800.0   0.2672   
202900.0   0.2652   
203000.0   0.2632   
203100.0   0.2612   
203200.0   0.2592   
203300.0   0.2582   
203400.0   0.2582   
203500.0   0.2582   
203600.0   0.2601   
203700.0   0.2621   
203800.0   0.2651   
203900.0   0.2671   
204000.0   0.2691   
204100.0   0.2701   
204200.0   0.2711   
204300.0   0.2721   
204400.0   0.2731   
204500.0   0.2751   
204600.0   0.2771   
204700.0   0.2801   
204800.0   0.2821   
204900.0   0.2851   
205000.0   0.2851   
205100.0   0.2861   
205200.0   0.2851   
205300.0   0.2841   
205400.0   0.2821   
205500.0   0.2811   
205600.0   0.2801   
205700.0   0.2791   
205800.0   0.2791   
205900.0   0.2791   
206000.0   0.2781   
206100.0   0.2771   
206200.0   0.2761   
206300.0   0.2741   
206400.0   0.2731   
206500.0   0.2711   
206600.0   0.2711   
206700.0   0.2721   
206800.0   0.2741   
206900.0   0.2771   
207000.0   0.2791   
207100.0   0.2811   
207200.0   0.2821   
207300.0   0.2821   
207400.0   0.2811   
207500.0   0.2791   
207600.0   0.2771   
207700.0   0.2751   
207800.0   0.2731   
207900.0   0.2731   
208000.0   0.2731   
208100.0   0.2741   
208200.0   0.2741   
208300.0   0.2751   
208400.0   0.2761   
208500.0   0.2761   
208600.0   0.2751   
208700.0   0.2751   
208800.0   0.2751   
208900.0   0.2751   
209000.0   0.2761   
209100.0   0.2761   
209200.0   0.2771   
209300.0   0.2771   
209400.0   0.2771   
209500.0   0.2751   
209600.0   0.2731   
209700.0   0.2711   
209800.0   0.2681   
209900.0   0.2651   
210000.0   0.2641   
210100.0   0.2621   
210200.0   0.2631   
210300.0   0.2631   
210400.0   0.2651   
210500.0   0.2671   
210600.0   0.2681   
210700.0   0.2701   
210800.0   0.2721   
210900.0   0.2731   
211000.0   0.2751   
211100.0   0.2771   
211200.0   0.2791   
211300.0   0.2821   
211400.0   0.2851   
211500.0   0.288   
211600.0   0.291   
211700.0   0.293   
211800.0   0.295   
211900.0   0.295   
212000.0   0.295   
212100.0   0.295   
212200.0   0.295   
212300.0   0.296   
212400.0   0.296   
212500.0   0.297   
212600.0   0.299   
212700.0   0.3   
212800.0   0.3   
212900.0   0.3   
213000.0   0.298   
213100.0   0.296   
213200.0   0.293   
213300.0   0.289   
213400.0   0.287   
213500.0   0.284   
213600.0   0.282   
213700.0   0.281   
213800.0   0.28   
213900.0   0.279   
214000.0   0.278   
214100.0   0.277   
214200.0   0.276   
214300.0   0.274   
214400.0   0.273   
214500.0   0.272   
214600.0   0.272   
214700.0   0.274   
214800.0   0.276   
214900.0   0.279   
215000.0   0.283   
215100.0   0.287   
215200.0   0.29   
215300.0   0.293   
215400.0   0.295   
215500.0   0.296   
215600.0   0.297   
215700.0   0.297   
215800.0   0.297   
215900.0   0.297   
216000.0   0.297   
216100.0   0.297   
216200.0   0.297   
216300.0   0.295   
216400.0   0.294   
216500.0   0.291   
216600.0   0.287   
216700.0   0.283   
216800.0   0.278   
216900.0   0.273   
217000.0   0.269   
217100.0   0.266   
217200.0   0.264   
217300.0   0.262   
217400.0   0.262   
217500.0   0.262   
217600.0   0.262   
217700.0   0.263   
217800.0   0.263   
217900.0   0.263   
218000.0   0.263   
218100.0   0.264   
218200.0   0.266   
218300.0   0.268   
218400.0   0.272   
218500.0   0.275   
218600.0   0.2799   
218700.0   0.2849   
218800.0   0.2879   
218900.0   0.2909   
219000.0   0.2929   
219100.0   0.2919   
219200.0   0.2909   
219300.0   0.2889   
219400.0   0.2859   
219500.0   0.2839   
219600.0   0.2819   
219700.0   0.2799   
219800.0   0.2789   
219900.0   0.2779   
220000.0   0.2769   
220100.0   0.2769   
220200.0   0.2759   
220300.0   0.2749   
220400.0   0.2729   
220500.0   0.2719   
220600.0   0.2699   
220700.0   0.2679   
220800.0   0.267   
220900.0   0.266   
221000.0   0.265   
221100.0   0.265   
221200.0   0.264   
221300.0   0.264   
221400.0   0.263   
221500.0   0.261   
221600.0   0.26   
221700.0   0.258   
221800.0   0.256   
221900.0   0.255   
222000.0   0.253   
222100.0   0.252   
222200.0   0.252   
222300.0   0.252   
222400.0   0.252   
222500.0   0.252   
222600.0   0.251   
222700.0   0.25   
222800.0   0.249   
222900.0   0.247   
223000.0   0.245   
223100.0   0.243   
223200.0   0.24   
223300.0   0.239   
223400.0   0.237   
223500.0   0.236   
223600.0   0.236   
223700.0   0.235   
223800.0   0.234   
223900.0   0.233   
224000.0   0.231   
224100.0   0.229   
224200.0   0.226   
224300.0   0.222   
224400.0   0.218   
224500.0   0.214   
224600.0   0.21   
224700.0   0.207   
224800.0   0.205   
224900.0   0.203   
225000.0   0.202   
225100.0   0.202   
225200.0   0.201   
225300.0   0.2   
225400.0   0.199   
225500.0   0.198   
225600.0   0.196   
225700.0   0.195   
225800.0   0.194   
225900.0   0.193   
226000.0   0.193   
226100.0   0.193   
226200.0   0.195   
226300.0   0.196   
226400.0   0.198   
226500.0   0.199   
226600.0   0.201   
226700.0   0.201   
226800.0   0.201   
226900.0   0.201   
227000.0   0.2   
227100.0   0.199   
227200.0   0.199   
227300.0   0.199   
227400.0   0.199   
227500.0   0.2   
227600.0   0.201   
227700.0   0.202   
227800.0   0.203   
227900.0   0.203   
228000.0   0.202   
228100.0   0.202   
228200.0   0.2   
228300.0   0.198   
228400.0   0.195   
228500.0   0.193   
228600.0   0.191   
228700.0   0.19   
228800.0   0.189   
228900.0   0.189   
229000.0   0.189   
229100.0   0.19   
229200.0   0.19   
229300.0   0.191   
229400.0   0.192   
229500.0   0.1919   
229600.0   0.1919   
229700.0   0.1919   
229800.0   0.1929   
229900.0   0.1929   
230000.0   0.1949   
230100.0   0.1959   
230200.0   0.1979   
230300.0   0.1999   
230400.0   0.2019   
230500.0   0.2029   
230600.0   0.2039   
230700.0   0.2039   
230800.0   0.2029   
230900.0   0.2029   
231000.0   0.2019   
231100.0   0.1999   
231200.0   0.1989   
231300.0   0.1979   
231400.0   0.197   
231500.0   0.196   
231600.0   0.196   
231700.0   0.195   
231800.0   0.193   
231900.0   0.192   
232000.0   0.19   
232100.0   0.187   
232200.0   0.185   
232300.0   0.181   
232400.0   0.177   
232500.0   0.174   
232600.0   0.17   
232700.0   0.167   
232800.0   0.164   
232900.0   0.162   
233000.0   0.16   
233100.0   0.159   
233200.0   0.157   
233300.0   0.155   
233400.0   0.154   
233500.0   0.152   
233600.0   0.15   
233700.0   0.148   
233800.0   0.146   
233900.0   0.144   
234000.0   0.142   
234100.0   0.141   
234200.0   0.14   
234300.0   0.139   
234400.0   0.138   
234500.0   0.138   
234600.0   0.137   
234700.0   0.136   
234800.0   0.135   
234900.0   0.133   
235000.0   0.131   
235100.0   0.129   
235200.0   0.127   
235300.0   0.124   
235400.0   0.122   
235500.0   0.121   
235600.0   0.119   
235700.0   0.118   
235800.0   0.118   
235900.0   0.117   
236000.0   0.117   
236100.0   0.118   
236200.0   0.118   
236300.0   0.118   
236400.0   0.118   
236500.0   0.118   
236600.0   0.118   
236700.0   0.118   
236800.0   0.118   
236900.0   0.118   
237000.0   0.119   
237100.0   0.119   
237200.0   0.12   
237300.0   0.121   
237400.0   0.122   
237500.0   0.122   
237600.0   0.122   
237700.0   0.122   
237800.0   0.122   
237900.0   0.121   
238000.0   0.121   
238100.0   0.12   
238200.0   0.12   
238300.0   0.119   
238400.0   0.119   
238500.0   0.12   
238600.0   0.12   
238700.0   0.121   
238800.0   0.123   
238900.0   0.124   
239000.0   0.126   
239100.0   0.127   
239200.0   0.128   
239300.0   0.129   
239400.0   0.13   
239500.0   0.131   
239600.0   0.132   
239700.0   0.132   
239800.0   0.133   
239900.0   0.134   
240000.0   0.135   
240100.0   0.136   
240200.0   0.138   
240300.0   0.139   
240400.0   0.141   
240500.0   0.143   
240600.0   0.144   
240700.0   0.145   
240800.0   0.145   
240900.0   0.146   
241000.0   0.146   
241100.0   0.146   
241200.0   0.146   
241300.0   0.146   
241400.0   0.146   
241500.0   0.146   
241600.0   0.147   
241700.0   0.148   
241800.0   0.149   
241900.0   0.15   
242000.0   0.151   
242100.0   0.151   
242200.0   0.151   
242300.0   0.151   
242400.0   0.15   
242500.0   0.15   
242600.0   0.149   
242700.0   0.148   
242800.0   0.147   
242900.0   0.147   
243000.0   0.146   
243100.0   0.146   
243200.0   0.147   
243300.0   0.148   
243400.0   0.148   
243500.0   0.149   
243600.0   0.149   
243700.0   0.15   
243800.0   0.15   
243900.0   0.15   
244000.0   0.15   
244100.0   0.149   
244200.0   0.149   
244300.0   0.148   
244400.0   0.148   
244500.0   0.148   
244600.0   0.147   
244700.0   0.147   
244800.0   0.147   
244900.0   0.146   
245000.0   0.146   
245100.0   0.145   
245200.0   0.144   
245300.0   0.1421   
245400.0   0.1411   
245500.0   0.1391   
245600.0   0.1371   
245700.0   0.1351   
245800.0   0.1331   
245900.0   0.1311   
246000.0   0.1291   
246100.0   0.1281   
246200.0   0.1271   
246300.0   0.1261   
246400.0   0.1261   
246500.0   0.1261   
246600.0   0.1251   
246700.0   0.1251   
246800.0   0.1251   
246900.0   0.1241   
247000.0   0.1231   
247100.0   0.1231   
247200.0   0.1221   
247300.0   0.1201   
247400.0   0.1191   
247500.0   0.1181   
247600.0   0.1171   
247700.0   0.1171   
247800.0   0.1161   
247900.0   0.1161   
248000.0   0.1161   
248100.0   0.1161   
248200.0   0.1161   
248300.0   0.1151   
248400.0   0.1151   
248500.0   0.1141   
248600.0   0.1131   
248700.0   0.1121   
248800.0   0.1101   
248900.0   0.1091   
249000.0   0.1081   
249100.0   0.1071   
249200.0   0.1061   
249300.0   0.1051   
249400.0   0.1051   
249500.0   0.1041   
249600.0   0.1031   
249700.0   0.1031   
249800.0   0.1021   
249900.0   0.1011   
250000.0   0.1   
250100.0   0.09892   
250200.0   0.09732   
250300.0   0.09563   
250400.0   0.09393   
250500.0   0.09214   
250600.0   0.09035   
250700.0   0.08855   
250800.0   0.08706   
250900.0   0.08577   
251000.0   0.08448   
251100.0   0.08348   
251200.0   0.08268   
251300.0   0.08188   
251400.0   0.08117   
251500.0   0.08056   
251600.0   0.07995   
251700.0   0.07934   
251800.0   0.07884   
251900.0   0.07824   
252000.0   0.07774   
252100.0   0.07725   
252200.0   0.07686   
252300.0   0.07647   
252400.0   0.07628   
252500.0   0.07609   
252600.0   0.076   
252700.0   0.0761   
252800.0   0.0762   
252900.0   0.0762   
253000.0   0.0762   
253100.0   0.0762   
253200.0   0.0761   
253300.0   0.0756   
253400.0   0.07519   
253500.0   0.07459   
253600.0   0.07379   
253700.0   0.07298   
253800.0   0.07218   
253900.0   0.07138   
254000.0   0.07057   
254100.0   0.06987   
254200.0   0.06927   
254300.0   0.06867   
254400.0   0.06807   
254500.0   0.06747   
254600.0   0.06668   
254700.0   0.06598   
254800.0   0.06489   
254900.0   0.0636   
255000.0   0.0624   
255100.0   0.06091   
255200.0   0.05922   
255300.0   0.05763   
255400.0   0.05604   
255500.0   0.05465   
255600.0   0.05326   
255700.0   0.05206   
255800.0   0.05127   
255900.0   0.05057   
256000.0   0.04988   
256100.0   0.04938   
256200.0   0.04888   
256300.0   0.04839   
256400.0   0.04759   
256500.0   0.0466   
256600.0   0.04571   
256700.0   0.04442   
256800.0   0.04294   
256900.0   0.04136   
257000.0   0.03977   
257100.0   0.03808   
257200.0   0.0364   
257300.0   0.03481   
257400.0   0.03361   
257500.0   0.03231   
257600.0   0.03121   
257700.0   0.03073   
257800.0   0.03024   
257900.0   0.02976   
258000.0   0.02978   
258100.0   0.02981   
258200.0   0.02993   
258300.0   0.03015   
258400.0   0.03046   
258500.0   0.03088   
258600.0   0.03119   
258700.0   0.03168   
258800.0   0.03208   
258900.0   0.03257   
259000.0   0.03305   
259100.0   0.03353   
259200.0   0.03402   
259300.0   0.03431   
259400.0   0.0347   
259500.0   0.035   
259600.0   0.0351   
259700.0   0.03519   
259800.0   0.0352   
259900.0   0.0351   
260000.0   0.03481   
260100.0   0.03442   
260200.0   0.03404   
260300.0   0.03345   
260400.0   0.03287   
260500.0   0.03229   
260600.0   0.03162   
260700.0   0.03094   
260800.0   0.03027   
260900.0   0.0297   
261000.0   0.02913   
261100.0   0.02857   
261200.0   0.02801   
261300.0   0.02746   
261400.0   0.02699   
261500.0   0.02642   
261600.0   0.02585   
261700.0   0.02527   
261800.0   0.02461   
261900.0   0.02383   
262000.0   0.02303   
262100.0   0.02225   
262200.0   0.02145   
262300.0   0.02073   
262400.0   0.02001   
262500.0   0.01938   
262600.0   0.01904   
262700.0   0.01878   
262800.0   0.01844   
262900.0   0.0186   
263000.0   0.01868   
263100.0   0.01885   
263200.0   0.01905   
263300.0   0.01926   
263400.0   0.01947   
263500.0   0.01958   
263600.0   0.01968   
263700.0   0.01969   
263800.0   0.0197   
263900.0   0.0197   
264000.0   0.01961   
264100.0   0.01951   
264200.0   0.01952   
264300.0   0.01952   
264400.0   0.01952   
264500.0   0.01953   
264600.0   0.01955   
264700.0   0.01957   
264800.0   0.01958   
264900.0   0.01931   
265000.0   0.01905   
265100.0   0.01878   
265200.0   0.01834   
265300.0   0.01769   
265400.0   0.01704   
265500.0   0.0164   
265600.0   0.01574   
265700.0   0.01499   
265800.0   0.01432   
265900.0   0.01356   
266000.0   0.01295   
266100.0   0.01227   
266200.0   0.0116   
266300.0   0.01092   
266400.0   0.01025   
266500.0   0.00957   
266600.0   0.008922   
266700.0   0.008275   
266800.0   0.00761   
266900.0   0.007119   
267000.0   0.007046   
267100.0   0.006893   
267200.0   0.006626   
267300.0   0.02397   
267400.0   0.02668   
267500.0   0.02662   
267600.0   0.0269   
267700.0   0.02601   
267800.0   0.02512   
267900.0   0.02432   
268000.0   0.02352   
268100.0   0.02272   
268200.0   0.02194   
268300.0   0.02105   
268400.0   0.02012   
268500.0   0.01923   
268600.0   0.01838   
268700.0   0.01756   
268800.0   0.0168   
268900.0   0.01606   
269000.0   0.01535   
269100.0   0.01469   
269200.0   0.01405   
269300.0   0.01344   
269400.0   0.01286   
269500.0   0.01228   
269600.0   0.01173   
269700.0   0.01121   
269800.0   0.0107   
269900.0   0.0102   
270000.0   0.009597   
270100.0   0.008902   
270200.0   0.008212   
270300.0   0.007197   
270400.0   0.004399   
270500.0   0.004714   
270600.0   0.005076   
270700.0   0.005503   
270800.0   0.005816   
270900.0   0.006134   
271000.0   0.006456   
271100.0   0.006676   
271200.0   0.006791   
271300.0   0.006884   
271400.0   0.006983   
271500.0   0.006949   
271600.0   0.006919   
271700.0   0.006884   
271800.0   0.006815   
271900.0   0.006726   
272000.0   0.006648   
272100.0   0.006575   
272200.0   0.006435   
272300.0   0.006261   
272400.0   0.006106   
272500.0   0.005894   
272600.0   0.005476   
272700.0   0.005061   
272800.0   0.004671   
272900.0   0.00411   
273000.0   0.003495   
273100.0   0.002938   
273200.0   0.002394   
273300.0   0.001428   
273400.0   0.0008487   
273500.0   0.0005143   
273600.0   0.0003977   
273700.0   6.263e-05   
273800.0   0.0001042   
273900.0   8.78e-05   
274000.0   7.378e-05   
274100.0   6.233e-05   
274200.0   5.235e-05   
274300.0   4.419e-05   
274400.0   3.732e-05   
274500.0   3.132e-05   
274600.0   2.633e-05   
274700.0   2.214e-05   
274800.0   1.861e-05   
274900.0   1.562e-05   
275000.0   1.315e-05   
275100.0   1.105e-05   
275200.0   9.278e-06   
275300.0   7.795e-06   
275400.0   7.077e-06   
275500.0   6.625e-06   
275600.0   6.192e-06   
275700.0   5.796e-06   
275800.0   5.401e-06   
275900.0   5.06e-06   
276000.0   4.737e-06   
276100.0   4.432e-06   
276200.0   4.146e-06   
276300.0   3.878e-06   
276400.0   3.628e-06   
276500.0   3.378e-06   
276600.0   3.159e-06   
276700.0   2.953e-06   
276800.0   2.763e-06   
276900.0   2.577e-06   
277000.0   2.404e-06   
277100.0   2.249e-06   
277200.0   4.774e-06   
277300.0   7.185e-06   
277400.0   1.73e-05   
277500.0   8.755e-05   
277600.0   0.000803   
277700.0   0.001069   
277800.0   0.001401   
277900.0   0.001799   
278000.0   0.002105   
278100.0   0.002185   
278200.0   0.002243   
278300.0   0.002323   
278400.0   0.002347   
278500.0   0.002352   
278600.0   0.002359   
278700.0   0.002369   
278800.0   0.002355   
278900.0   0.002352   
279000.0   0.002351   
279100.0   0.002314   
279200.0   0.002129   
279300.0   0.00197   
279400.0   0.001816   
279500.0   0.001518   
279600.0   0.001113   
279700.0   0.0008091   
279800.0   0.0005917   
279900.0   0.0001311   
280000.0   3.66e-05   
280500.0   8.797e-06   
281000.0   1.064e-05   
281500.0   1.148e-05   
282000.0   1.242e-05   
282500.0   1.351e-05   
283000.0   1.417e-05   
283500.0   1.39e-05   
284000.0   1.378e-05   
284500.0   1.371e-05   
285000.0   1.266e-05   
285500.0   1.089e-05   
