# The following tables show the relative spectral response (RSR) curves, which take account of the photon to energy conversion of the detector quantum efficiency by multiplying by the wavelengths (FAD = Filter and Detector).
#Thus these RSRs can directly be integrated over spectra given as $F_\lambda$ to obtain the in-band fluxes.
#These RSRs have been prepared in collaboration with Martin Cohen and assure the common calibration of the IRC with other missions and ground-based instruments, including Subaru/COMICS, in the framework of the absolute calibration network provided by Martin Cohen and his colleagues.
#The present RSRs are prepared on the basis of the best laboratory measurements of the optical elements of the IRC
#http://www.ir.isas.jaxa.jp/ASTRO-F/Observation/RSRF/IRC_FAD/index.html
#wave   response   
40000.0   0.0   
40011.0   3.5909e-07   
40027.0   1.1551e-06   
40042.0   3.0017e-07   
40058.0   1.0295e-06   
40073.0   1.27e-06   
40089.0   1.0434e-06   
40104.0   1.3606e-06   
40120.0   1.1092e-06   
40135.0   0.0   
40151.0   4.627e-07   
40166.0   1.6738e-06   
40182.0   0.0   
40197.0   1.1356e-06   
40213.0   9.037e-08   
40229.0   0.0   
40244.0   6.9453e-07   
40260.0   3.2143e-07   
40275.0   0.0   
40291.0   8.4903e-08   
40307.0   4.9047e-07   
40322.0   1.7962e-06   
40338.0   6.494e-08   
40354.0   0.0   
40369.0   4.7538e-07   
40385.0   6.517e-07   
40401.0   4.686e-07   
40417.0   3.3872e-07   
40432.0   0.0   
40448.0   5.1117e-07   
40464.0   5.477e-07   
40480.0   0.0   
40496.0   1.2179e-07   
40511.0   9.4177e-07   
40527.0   2.1428e-07   
40543.0   4.2935e-07   
40559.0   3.0663e-07   
40575.0   6.2421e-07   
40591.0   7.6619e-07   
40607.0   5.8236e-07   
40622.0   6.6775e-07   
40638.0   7.669e-07   
40654.0   1.8767e-06   
40670.0   1.1853e-06   
40686.0   7.7662e-07   
40702.0   1.3075e-07   
40718.0   9.5329e-07   
40734.0   0.0   
40750.0   0.0   
40766.0   6.5461e-07   
40782.0   4.1298e-07   
40798.0   1.0073e-06   
40814.0   0.0   
40830.0   5.4507e-07   
40846.0   8.9155e-07   
40863.0   5.3658e-07   
40879.0   5.8545e-07   
40895.0   1.3395e-07   
40911.0   1.1397e-07   
40927.0   1.0926e-06   
40943.0   7.4377e-08   
40959.0   1.3801e-06   
40976.0   6.9158e-07   
40992.0   0.0   
41008.0   0.0   
41024.0   1.2581e-06   
41040.0   1.038e-06   
41057.0   2.7991e-07   
41073.0   3.7619e-07   
41089.0   2.6672e-07   
41105.0   8.743e-07   
41122.0   6.9753e-07   
41138.0   4.1871e-07   
41154.0   9.8712e-07   
41171.0   5.8156e-07   
41187.0   6.7333e-07   
41203.0   5.2445e-07   
41220.0   1.1175e-06   
41236.0   7.1419e-07   
41253.0   0.0   
41269.0   3.2607e-07   
41286.0   0.0   
41302.0   2.4786e-07   
41318.0   1.0422e-06   
41335.0   3.2185e-07   
41351.0   5.6529e-07   
41368.0   8.8608e-07   
41384.0   1.3225e-06   
41401.0   1.5259e-06   
41417.0   7.8729e-07   
41434.0   1.6632e-06   
41451.0   1.3249e-06   
41467.0   8.9279e-07   
41484.0   1.4848e-06   
41500.0   1.8154e-06   
41517.0   1.1059e-06   
41534.0   9.6132e-07   
41550.0   1.1866e-06   
41567.0   1.2995e-06   
41583.0   1.0622e-06   
41600.0   7.34e-07   
41617.0   1.602e-06   
41634.0   1.6772e-06   
41650.0   8.0549e-07   
41667.0   3.6095e-07   
41684.0   1.4477e-06   
41701.0   1.7754e-06   
41717.0   1.1424e-06   
41734.0   6.9237e-07   
41751.0   8.3356e-07   
41768.0   1.7781e-06   
41785.0   1.5321e-06   
41801.0   5.2813e-07   
41818.0   2.7282e-07   
41835.0   1.1641e-06   
41852.0   2.321e-06   
41869.0   1.3402e-06   
41886.0   2.0548e-06   
41903.0   3.1126e-06   
41920.0   1.4773e-06   
41937.0   2.2739e-06   
41954.0   2.7675e-06   
41971.0   1.7678e-06   
41988.0   2.3271e-06   
42005.0   2.365e-06   
42022.0   3.2476e-06   
42039.0   2.9388e-06   
42056.0   1.7107e-06   
42073.0   3.1298e-06   
42090.0   3.2792e-06   
42107.0   2.9305e-06   
42124.0   4.6083e-06   
42141.0   5.1281e-06   
42158.0   3.8815e-06   
42175.0   4.1395e-06   
42193.0   4.5251e-06   
42210.0   3.8984e-06   
42227.0   4.8728e-06   
42244.0   5.1043e-06   
42261.0   4.8155e-06   
42279.0   5.6924e-06   
42296.0   5.6593e-06   
42313.0   5.8003e-06   
42330.0   6.0982e-06   
42348.0   6.3486e-06   
42365.0   7.0582e-06   
42382.0   7.0658e-06   
42400.0   7.4445e-06   
42417.0   7.9438e-06   
42434.0   7.8285e-06   
42452.0   7.1134e-06   
42469.0   8.1648e-06   
42486.0   1.0619e-05   
42504.0   9.651e-06   
42521.0   8.9117e-06   
42539.0   1.0843e-05   
42556.0   1.1242e-05   
42574.0   1.0583e-05   
42591.0   1.041e-05   
42609.0   1.1458e-05   
42626.0   1.2714e-05   
42644.0   1.1751e-05   
42661.0   1.2051e-05   
42679.0   1.3683e-05   
42696.0   1.2524e-05   
42714.0   1.2835e-05   
42731.0   1.5019e-05   
42749.0   1.4865e-05   
42767.0   1.5248e-05   
42784.0   1.5377e-05   
42802.0   1.4241e-05   
42820.0   1.5345e-05   
42837.0   1.5221e-05   
42855.0   1.4239e-05   
42873.0   1.7168e-05   
42890.0   1.8049e-05   
42908.0   1.6361e-05   
42926.0   1.707e-05   
42944.0   1.7014e-05   
42962.0   1.6246e-05   
42979.0   1.7189e-05   
42997.0   1.8077e-05   
43015.0   1.7372e-05   
43033.0   1.6141e-05   
43051.0   1.7385e-05   
43069.0   1.9466e-05   
43086.0   1.8897e-05   
43104.0   1.8135e-05   
43122.0   1.7865e-05   
43140.0   1.8207e-05   
43158.0   1.9156e-05   
43176.0   1.7526e-05   
43194.0   1.6416e-05   
43212.0   1.7924e-05   
43230.0   1.8862e-05   
43248.0   1.8663e-05   
43266.0   1.7706e-05   
43284.0   1.7407e-05   
43302.0   1.7629e-05   
43320.0   1.7134e-05   
43339.0   1.7278e-05   
43357.0   1.7593e-05   
43375.0   1.786e-05   
43393.0   1.8015e-05   
43411.0   1.6865e-05   
43429.0   1.6769e-05   
43447.0   1.7073e-05   
43466.0   1.6604e-05   
43484.0   1.7064e-05   
43502.0   1.6587e-05   
43520.0   1.5614e-05   
43539.0   1.5769e-05   
43557.0   1.515e-05   
43575.0   1.5157e-05   
43594.0   1.6554e-05   
43612.0   1.6557e-05   
43630.0   1.5197e-05   
43649.0   1.4698e-05   
43667.0   1.5329e-05   
43685.0   1.4781e-05   
43704.0   1.4091e-05   
43722.0   1.5143e-05   
43741.0   1.4544e-05   
43759.0   1.3182e-05   
43778.0   1.3596e-05   
43796.0   1.3286e-05   
43815.0   1.2863e-05   
43833.0   1.3557e-05   
43852.0   1.3955e-05   
43870.0   1.3587e-05   
43889.0   1.2531e-05   
43907.0   1.1457e-05   
43926.0   1.1232e-05   
43945.0   1.184e-05   
43963.0   1.2181e-05   
43982.0   1.2036e-05   
44001.0   1.223e-05   
44019.0   1.1794e-05   
44038.0   1.1674e-05   
44057.0   1.2049e-05   
44075.0   1.1484e-05   
44094.0   1.1125e-05   
44113.0   1.102e-05   
44132.0   1.0553e-05   
44150.0   9.8326e-06   
44169.0   9.6381e-06   
44188.0   1.0432e-05   
44207.0   1.0607e-05   
44226.0   9.5789e-06   
44245.0   8.6703e-06   
44263.0   9.0452e-06   
44282.0   9.7465e-06   
44301.0   9.1654e-06   
44320.0   8.4474e-06   
44339.0   8.3218e-06   
44358.0   8.0784e-06   
44377.0   8.0214e-06   
44396.0   8.0235e-06   
44415.0   7.8373e-06   
44434.0   7.9814e-06   
44453.0   7.8854e-06   
44472.0   7.2992e-06   
44491.0   6.7408e-06   
44510.0   6.6661e-06   
44529.0   7.2822e-06   
44549.0   7.156e-06   
44568.0   6.3544e-06   
44587.0   6.3091e-06   
44606.0   5.6569e-06   
44625.0   4.7626e-06   
44644.0   5.3976e-06   
44664.0   5.9836e-06   
44683.0   5.5682e-06   
44702.0   5.2307e-06   
44722.0   4.9513e-06   
44741.0   4.5034e-06   
44760.0   4.5329e-06   
44779.0   5.3093e-06   
44799.0   5.8162e-06   
44818.0   5.6256e-06   
44838.0   5.8306e-06   
44857.0   5.4477e-06   
44876.0   4.3748e-06   
44896.0   3.9423e-06   
44915.0   4.0091e-06   
44935.0   4.1413e-06   
44954.0   4.083e-06   
44974.0   3.6032e-06   
44993.0   3.1455e-06   
45013.0   3.3872e-06   
45032.0   3.836e-06   
45052.0   4.047e-06   
45071.0   4.2451e-06   
45091.0   4.4785e-06   
45111.0   4.1177e-06   
45130.0   4.0177e-06   
45150.0   4.5183e-06   
45170.0   4.8748e-06   
45189.0   5.1585e-06   
45209.0   4.9733e-06   
45229.0   4.1642e-06   
45248.0   3.8139e-06   
45268.0   4.2199e-06   
45288.0   4.5406e-06   
45308.0   4.2685e-06   
45327.0   3.8602e-06   
45347.0   4.0765e-06   
45367.0   4.4575e-06   
45387.0   5.0739e-06   
45407.0   5.8241e-06   
45427.0   6.1243e-06   
45447.0   6.0911e-06   
45467.0   5.7943e-06   
45486.0   4.8741e-06   
45506.0   4.5405e-06   
45526.0   4.9316e-06   
45546.0   5.1236e-06   
45566.0   5.8485e-06   
45586.0   6.7473e-06   
45606.0   7.223e-06   
45627.0   7.8311e-06   
45647.0   7.5741e-06   
45667.0   7.0303e-06   
45687.0   7.8131e-06   
45707.0   8.9448e-06   
45727.0   8.6899e-06   
45747.0   8.2557e-06   
45768.0   7.3524e-06   
45788.0   6.1994e-06   
45808.0   6.5698e-06   
45828.0   7.7223e-06   
45848.0   8.5655e-06   
45869.0   9.1947e-06   
45889.0   9.834e-06   
45909.0   1.0025e-05   
45930.0   1.0117e-05   
45950.0   1.116e-05   
45970.0   1.2345e-05   
45991.0   1.2548e-05   
46011.0   1.2332e-05   
46032.0   1.2898e-05   
46052.0   1.3905e-05   
46072.0   1.4412e-05   
46093.0   1.5642e-05   
46113.0   1.6881e-05   
46134.0   1.6876e-05   
46155.0   1.7521e-05   
46175.0   1.8559e-05   
46196.0   1.981e-05   
46216.0   2.0166e-05   
46237.0   2.0642e-05   
46257.0   2.2178e-05   
46278.0   2.1563e-05   
46299.0   2.2363e-05   
46319.0   2.3557e-05   
46340.0   2.2468e-05   
46361.0   2.3894e-05   
46382.0   2.3684e-05   
46402.0   2.2892e-05   
46423.0   2.6948e-05   
46444.0   2.8708e-05   
46465.0   2.8347e-05   
46486.0   2.9042e-05   
46506.0   2.9795e-05   
46527.0   3.3704e-05   
46548.0   3.6716e-05   
46569.0   3.4075e-05   
46590.0   3.4927e-05   
46611.0   3.891e-05   
46632.0   3.827e-05   
46653.0   3.9555e-05   
46674.0   4.2066e-05   
46695.0   4.1008e-05   
46716.0   4.2036e-05   
46737.0   4.3014e-05   
46758.0   4.4109e-05   
46779.0   4.8831e-05   
46800.0   5.1541e-05   
46821.0   4.8643e-05   
46842.0   4.6137e-05   
46864.0   4.9741e-05   
46885.0   5.2299e-05   
46906.0   5.4198e-05   
46927.0   5.9301e-05   
46948.0   5.9222e-05   
46970.0   6.3352e-05   
46991.0   7.0332e-05   
47012.0   6.4366e-05   
47034.0   6.3092e-05   
47055.0   6.8459e-05   
47076.0   7.0656e-05   
47098.0   7.4507e-05   
47119.0   7.5275e-05   
47141.0   7.9592e-05   
47162.0   8.4927e-05   
47183.0   8.3579e-05   
47205.0   8.5158e-05   
47226.0   8.6028e-05   
47248.0   8.8368e-05   
47269.0   9.4006e-05   
47291.0   9.3484e-05   
47313.0   9.0469e-05   
47334.0   9.7301e-05   
47356.0   0.00011032   
47377.0   0.00011051   
47399.0   0.00010373   
47421.0   0.00010882   
47442.0   0.00011429   
47464.0   0.00010759   
47486.0   0.00010523   
47508.0   0.00011647   
47529.0   0.00012389   
47551.0   0.00012488   
47573.0   0.00012352   
47595.0   0.00012872   
47617.0   0.00013883   
47639.0   0.00013555   
47660.0   0.0001391   
47682.0   0.00014447   
47704.0   0.00014095   
47726.0   0.0001561   
47748.0   0.0001629   
47770.0   0.00016044   
47792.0   0.00016889   
47814.0   0.00016432   
47836.0   0.00016732   
47858.0   0.00017631   
47881.0   0.00017751   
47903.0   0.00018428   
47925.0   0.00018119   
47947.0   0.00018392   
47969.0   0.00019851   
47991.0   0.00019639   
48014.0   0.00020452   
48036.0   0.00022143   
48058.0   0.00020439   
48080.0   0.00019055   
48103.0   0.00021388   
48125.0   0.00023018   
48147.0   0.00022268   
48170.0   0.00021834   
48192.0   0.00023507   
48214.0   0.00024955   
48237.0   0.00024191   
48259.0   0.00024889   
48282.0   0.00026272   
48304.0   0.00025837   
48327.0   0.00026343   
48349.0   0.00026181   
48372.0   0.00025694   
48394.0   0.00027688   
48417.0   0.00027751   
48440.0   0.00026959   
48462.0   0.00028651   
48485.0   0.00029875   
48508.0   0.00031281   
48530.0   0.00033   
48553.0   0.00032183   
48576.0   0.00032287   
48598.0   0.00033237   
48621.0   0.00032738   
48644.0   0.00033414   
48667.0   0.00033756   
48690.0   0.00034143   
48713.0   0.0003534   
48736.0   0.0003484   
48758.0   0.00033994   
48781.0   0.00033817   
48804.0   0.00035915   
48827.0   0.00039221   
48850.0   0.00039594   
48873.0   0.0003855   
48896.0   0.00038188   
48919.0   0.0003965   
48943.0   0.00042069   
48966.0   0.0004332   
48989.0   0.00045041   
49012.0   0.00046155   
49035.0   0.00043079   
49058.0   0.00041615   
49081.0   0.00045653   
49105.0   0.00047519   
49128.0   0.00046047   
49151.0   0.00045216   
49175.0   0.00047642   
49198.0   0.00050005   
49221.0   0.00048623   
49245.0   0.00050486   
49268.0   0.00050302   
49291.0   0.00047581   
49315.0   0.00052177   
49338.0   0.0005408   
49362.0   0.00051927   
49385.0   0.00052577   
49409.0   0.00056763   
49432.0   0.00059312   
49456.0   0.0005586   
49480.0   0.00057628   
49503.0   0.00060043   
49527.0   0.00057754   
49550.0   0.00059625   
49574.0   0.00059872   
49598.0   0.00061386   
49622.0   0.00066449   
49645.0   0.00064332   
49669.0   0.00063544   
49693.0   0.00068123   
49717.0   0.00068468   
49741.0   0.00068569   
49764.0   0.00068503   
49788.0   0.00066041   
49812.0   0.00067986   
49836.0   0.00072735   
49860.0   0.00074811   
49884.0   0.00071778   
49908.0   0.00070189   
49932.0   0.00074755   
49956.0   0.00073814   
49980.0   0.00070963   
50004.0   0.00075128   
50029.0   0.00077282   
50053.0   0.00076026   
50077.0   0.00075627   
50101.0   0.00077406   
50125.0   0.00081984   
50150.0   0.00083351   
50174.0   0.00079548   
50198.0   0.00078233   
50222.0   0.00082476   
50247.0   0.00086056   
50271.0   0.00085268   
50295.0   0.00085415   
50320.0   0.00087795   
50344.0   0.00090511   
50369.0   0.00092535   
50393.0   0.00090032   
50418.0   0.00087726   
50442.0   0.00090563   
50467.0   0.00092332   
50491.0   0.00090428   
50516.0   0.00088723   
50541.0   0.00091856   
50565.0   0.00096187   
50590.0   0.00093371   
50615.0   0.00091637   
50639.0   0.00095508   
50664.0   0.00099569   
50689.0   0.0010558   
50714.0   0.0010526   
50738.0   0.0010057   
50763.0   0.0010439   
50788.0   0.0010169   
50813.0   0.0009304   
50838.0   0.00099739   
50863.0   0.001042   
50888.0   0.0010527   
50913.0   0.0011433   
50938.0   0.001072   
50963.0   0.0010124   
50988.0   0.001097   
51013.0   0.0010821   
51038.0   0.0010874   
51063.0   0.0011002   
51088.0   0.0010829   
51113.0   0.0011247   
51139.0   0.0011302   
51164.0   0.0011399   
51189.0   0.0011526   
51214.0   0.0011757   
51240.0   0.0011728   
51265.0   0.0011316   
51290.0   0.0011725   
51316.0   0.0011498   
51341.0   0.0011391   
51367.0   0.0012455   
51392.0   0.0012351   
51418.0   0.0011447   
51443.0   0.0012051   
51469.0   0.0013029   
51494.0   0.00121   
51520.0   0.0012476   
51545.0   0.001423   
51571.0   0.0013373   
51597.0   0.0012777   
51622.0   0.0013248   
51648.0   0.0012967   
51674.0   0.0013162   
51699.0   0.0013184   
51725.0   0.0013115   
51751.0   0.0013715   
51777.0   0.0013716   
51803.0   0.001257   
51829.0   0.0012308   
51855.0   0.0013462   
51881.0   0.001344   
51906.0   0.0013172   
51932.0   0.001353   
51959.0   0.0013279   
51985.0   0.0013712   
52011.0   0.0013643   
52037.0   0.0012881   
52063.0   0.0013841   
52089.0   0.0014426   
52115.0   0.0013832   
52141.0   0.0013971   
52168.0   0.0014294   
52194.0   0.001441   
52220.0   0.0014423   
52246.0   0.0014517   
52273.0   0.0014692   
52299.0   0.0013993   
52326.0   0.0014139   
52352.0   0.0015388   
52378.0   0.0014977   
52405.0   0.0014179   
52431.0   0.0014625   
52458.0   0.0015198   
52484.0   0.0015303   
52511.0   0.0015114   
52538.0   0.0015522   
52564.0   0.0015669   
52591.0   0.0015174   
52618.0   0.0015137   
52644.0   0.0015075   
52671.0   0.0015147   
52698.0   0.0015855   
52725.0   0.0016313   
52751.0   0.0015852   
52778.0   0.00151   
52805.0   0.0015739   
52832.0   0.0016616   
52859.0   0.0015617   
52886.0   0.0015269   
52913.0   0.0016787   
52940.0   0.001627   
52967.0   0.0014987   
52994.0   0.0015104   
53021.0   0.0014945   
53048.0   0.001581   
53075.0   0.0016505   
53102.0   0.0015838   
53130.0   0.0015252   
53157.0   0.0014905   
53184.0   0.001559   
53211.0   0.0016043   
53239.0   0.0015506   
53266.0   0.001515   
53294.0   0.0016221   
53321.0   0.0017069   
53348.0   0.0015905   
53376.0   0.0016056   
53403.0   0.00168   
53431.0   0.0016277   
53458.0   0.0016035   
53486.0   0.0016081   
53514.0   0.0016809   
53541.0   0.0016624   
53569.0   0.0015921   
53596.0   0.0016197   
53624.0   0.001721   
53652.0   0.0018258   
53680.0   0.0017373   
53707.0   0.0016462   
53735.0   0.0017023   
53763.0   0.0017573   
53791.0   0.0018259   
53819.0   0.0017937   
53847.0   0.0017604   
53875.0   0.0018577   
53903.0   0.0018027   
53931.0   0.0016676   
53959.0   0.0017414   
53987.0   0.0018725   
54015.0   0.0019328   
54043.0   0.0019166   
54072.0   0.0017502   
54100.0   0.0018043   
54128.0   0.001988   
54156.0   0.0017724   
54185.0   0.001756   
54213.0   0.0019821   
54241.0   0.0018399   
54270.0   0.0018284   
54298.0   0.0019216   
54326.0   0.0018409   
54355.0   0.0018373   
54383.0   0.0018222   
54412.0   0.0018543   
54441.0   0.0018957   
54469.0   0.0018405   
54498.0   0.0018525   
54526.0   0.0019005   
54555.0   0.0018746   
54584.0   0.0018279   
54613.0   0.0018994   
54641.0   0.0019612   
54670.0   0.0019067   
54699.0   0.0018569   
54728.0   0.001885   
54757.0   0.0019987   
54786.0   0.0020134   
54815.0   0.0019918   
54844.0   0.0020608   
54873.0   0.0020897   
54902.0   0.0019308   
54931.0   0.0018549   
54960.0   0.0019447   
54989.0   0.002001   
55018.0   0.0021682   
55047.0   0.002173   
55077.0   0.0020266   
55106.0   0.0020984   
55135.0   0.0020549   
55164.0   0.0020456   
55194.0   0.002171   
55223.0   0.0021463   
55253.0   0.0021374   
55282.0   0.0020555   
55312.0   0.00193   
55341.0   0.0020249   
55371.0   0.0021358   
55400.0   0.0020153   
55430.0   0.0018734   
55459.0   0.0019291   
55489.0   0.0021025   
55519.0   0.0021083   
55549.0   0.0019804   
55578.0   0.0020275   
55608.0   0.0020479   
55638.0   0.002014   
55668.0   0.00209   
55698.0   0.002076   
55728.0   0.0021072   
55758.0   0.0021401   
55788.0   0.0020719   
55818.0   0.0021523   
55848.0   0.0021154   
55878.0   0.0020084   
55908.0   0.0021181   
55938.0   0.0021597   
55968.0   0.0021431   
55998.0   0.0022397   
56029.0   0.0023016   
56059.0   0.0022601   
56089.0   0.0021141   
56120.0   0.0020825   
56150.0   0.0022577   
56180.0   0.0022296   
56211.0   0.0021011   
56241.0   0.0021573   
56272.0   0.0020973   
56302.0   0.0019714   
56333.0   0.0020134   
56364.0   0.0021015   
56394.0   0.0021063   
56425.0   0.0020775   
56456.0   0.0021998   
56486.0   0.0023391   
56517.0   0.002211   
56548.0   0.0021413   
56579.0   0.0022642   
56610.0   0.0021993   
56641.0   0.0021029   
56672.0   0.0022672   
56703.0   0.0024662   
56734.0   0.0024282   
56765.0   0.002183   
56796.0   0.0020826   
56827.0   0.002182   
56858.0   0.002254   
56889.0   0.0022803   
56921.0   0.0022899   
56952.0   0.0022979   
56983.0   0.0022904   
57014.0   0.0022737   
57046.0   0.0022543   
57077.0   0.0021656   
57109.0   0.0022058   
57140.0   0.0023702   
57172.0   0.0021976   
57203.0   0.0019903   
57235.0   0.0022799   
57266.0   0.0024419   
57298.0   0.002208   
57330.0   0.0022038   
57361.0   0.0023889   
57393.0   0.0024216   
57425.0   0.002288   
57457.0   0.0021128   
57488.0   0.0020909   
57520.0   0.0023014   
57552.0   0.002506   
57584.0   0.0023712   
57616.0   0.0022493   
57648.0   0.0023244   
57680.0   0.002322   
57712.0   0.0023043   
57745.0   0.0022629   
57777.0   0.0022799   
57809.0   0.0024026   
57841.0   0.0022674   
57873.0   0.0020125   
57906.0   0.0021439   
57938.0   0.0024549   
57970.0   0.0024014   
58003.0   0.002169   
58035.0   0.0022114   
58068.0   0.0024521   
58100.0   0.0025558   
58133.0   0.0023704   
58166.0   0.0021583   
58198.0   0.0022308   
58231.0   0.0023538   
58264.0   0.0022495   
58296.0   0.0022612   
58329.0   0.00247   
58362.0   0.0024812   
58395.0   0.0023441   
58428.0   0.0023758   
58461.0   0.0023877   
58494.0   0.0022274   
58527.0   0.0022909   
58560.0   0.0024034   
58593.0   0.0023697   
58626.0   0.002457   
58659.0   0.0023522   
58692.0   0.0021639   
58725.0   0.0022015   
58759.0   0.0022216   
58792.0   0.0024345   
58825.0   0.0025573   
58859.0   0.0022229   
58892.0   0.0020599   
58926.0   0.0022092   
58959.0   0.0024453   
58993.0   0.0024663   
59026.0   0.0021104   
59060.0   0.0020629   
59094.0   0.002313   
59127.0   0.0023301   
59161.0   0.0021116   
59195.0   0.0018536   
59229.0   0.0020184   
59262.0   0.002234   
59296.0   0.002067   
59330.0   0.0019937   
59364.0   0.0021013   
59398.0   0.0021532   
59432.0   0.0021266   
59466.0   0.0022214   
59500.0   0.0021457   
59535.0   0.0018747   
59569.0   0.0020535   
59603.0   0.0021737   
59637.0   0.0020088   
59672.0   0.0020692   
59706.0   0.0020186   
59740.0   0.0019069   
59775.0   0.0018168   
59809.0   0.0018113   
59844.0   0.0021872   
59878.0   0.0022489   
59913.0   0.0019933   
59948.0   0.0019321   
59982.0   0.0019724   
60017.0   0.0020974   
60052.0   0.0020036   
60086.0   0.0018313   
60121.0   0.0020148   
60156.0   0.002107   
60191.0   0.0019144   
60226.0   0.0018765   
60261.0   0.0020283   
60296.0   0.0019837   
60331.0   0.0018635   
60366.0   0.0018895   
60401.0   0.0018863   
60437.0   0.0019495   
60472.0   0.0019964   
60507.0   0.001935   
60542.0   0.0018963   
60578.0   0.001914   
60613.0   0.0019387   
60649.0   0.0018889   
60684.0   0.0019033   
60720.0   0.0019584   
60755.0   0.002036   
60791.0   0.0020633   
60827.0   0.0018502   
60862.0   0.0016883   
60898.0   0.0018094   
60934.0   0.0020505   
60970.0   0.0020597   
61005.0   0.0017916   
61041.0   0.0017409   
61077.0   0.0019718   
61113.0   0.0019841   
61149.0   0.0018711   
61185.0   0.001971   
61221.0   0.001977   
61258.0   0.0019532   
61294.0   0.0020057   
61330.0   0.0019568   
61366.0   0.0020499   
61403.0   0.0020499   
61439.0   0.0018036   
61476.0   0.0018338   
61512.0   0.0020315   
61548.0   0.0019939   
61585.0   0.0018562   
61622.0   0.0018332   
61658.0   0.0019058   
61695.0   0.0018893   
61732.0   0.0017446   
61768.0   0.0018   
61805.0   0.0019497   
61842.0   0.0019374   
61879.0   0.0020374   
61916.0   0.0020217   
61953.0   0.001736   
61990.0   0.0017079   
62027.0   0.0018675   
62064.0   0.001816   
62101.0   0.0017232   
62139.0   0.0018537   
62176.0   0.0019459   
62213.0   0.0017798   
62250.0   0.0016784   
62288.0   0.0017432   
62325.0   0.001901   
62363.0   0.0020059   
62400.0   0.00183   
62438.0   0.0016828   
62475.0   0.0016809   
62513.0   0.0016131   
62551.0   0.001651   
62589.0   0.0016561   
62626.0   0.0016898   
62664.0   0.0017974   
62702.0   0.0015436   
62740.0   0.0014838   
62778.0   0.0017982   
62816.0   0.0017896   
62854.0   0.0017771   
62892.0   0.0018627   
62930.0   0.0016226   
62969.0   0.0015777   
63007.0   0.0017218   
63045.0   0.0016078   
63083.0   0.001626   
63122.0   0.0017163   
63160.0   0.0018161   
63199.0   0.0019671   
63237.0   0.0017567   
63276.0   0.0016155   
63315.0   0.0018252   
63353.0   0.001836   
63392.0   0.0016257   
63431.0   0.0017012   
63470.0   0.0018561   
63508.0   0.0018551   
63547.0   0.0019292   
63586.0   0.001873   
63625.0   0.0017946   
63664.0   0.0018626   
63703.0   0.0017199   
63743.0   0.0017432   
63782.0   0.0017909   
63821.0   0.0016874   
63860.0   0.0018439   
63900.0   0.0017754   
63939.0   0.0015985   
63979.0   0.0016895   
64018.0   0.0017808   
64058.0   0.0018168   
64097.0   0.0017038   
64137.0   0.0016969   
64176.0   0.0017743   
64216.0   0.0017017   
64256.0   0.0016215   
64296.0   0.0015977   
64336.0   0.0018154   
64376.0   0.0018815   
64416.0   0.0015712   
64456.0   0.0014633   
64496.0   0.0016276   
64536.0   0.001874   
64576.0   0.0018325   
64616.0   0.0016323   
64657.0   0.0017479   
64697.0   0.0017886   
64737.0   0.0017244   
64778.0   0.0017964   
64818.0   0.0017434   
64859.0   0.0018449   
64899.0   0.0019499   
64940.0   0.0016143   
64981.0   0.0015308   
65021.0   0.001897   
65062.0   0.0020834   
65103.0   0.001864   
65144.0   0.0015847   
65185.0   0.0017136   
65226.0   0.0018739   
65267.0   0.0018884   
65308.0   0.0019743   
65349.0   0.0018221   
65390.0   0.0018042   
65432.0   0.0020313   
65473.0   0.001877   
65514.0   0.001658   
65556.0   0.0017991   
65597.0   0.001991   
65639.0   0.0018416   
65680.0   0.0016147   
65722.0   0.0018817   
65764.0   0.0020346   
65805.0   0.0016901   
65847.0   0.0016404   
65889.0   0.0017984   
65931.0   0.001839   
65973.0   0.0019603   
66015.0   0.0019372   
66057.0   0.0019168   
66099.0   0.0019368   
66141.0   0.0019422   
66183.0   0.0021956   
66226.0   0.0020372   
66268.0   0.0017372   
66310.0   0.0021783   
66353.0   0.0022708   
66395.0   0.0018343   
66438.0   0.0019494   
66480.0   0.0022385   
66523.0   0.0021892   
66566.0   0.0020655   
66608.0   0.0020292   
66651.0   0.0020453   
66694.0   0.0020473   
66737.0   0.0021439   
66780.0   0.0020495   
66823.0   0.0019053   
66866.0   0.0020253   
66909.0   0.0019082   
66952.0   0.0018741   
66996.0   0.002129   
67039.0   0.0021093   
67082.0   0.0021004   
67126.0   0.0020653   
67169.0   0.0017949   
67213.0   0.0017909   
67256.0   0.0019944   
67300.0   0.0020167   
67344.0   0.0017699   
67387.0   0.0018607   
67431.0   0.0021872   
67475.0   0.0019288   
67519.0   0.0018662   
67563.0   0.0021706   
67607.0   0.0020056   
67651.0   0.0018608   
67695.0   0.0020696   
67740.0   0.0020065   
67784.0   0.0019043   
67828.0   0.0021169   
67873.0   0.0020805   
67917.0   0.0019612   
67961.0   0.0020359   
68006.0   0.0020963   
68051.0   0.0023158   
68095.0   0.0021764   
68140.0   0.0018542   
68185.0   0.0021115   
68230.0   0.002235   
68275.0   0.0020832   
68320.0   0.0020744   
68365.0   0.0021093   
68410.0   0.0021908   
68455.0   0.0020735   
68500.0   0.0019983   
68545.0   0.0021305   
68591.0   0.002104   
68636.0   0.0021877   
68682.0   0.0022138   
68727.0   0.0019675   
68773.0   0.0019272   
68818.0   0.0020764   
68864.0   0.002021   
68910.0   0.001753   
68956.0   0.0018683   
69001.0   0.0022625   
69047.0   0.0022709   
69093.0   0.002051   
69139.0   0.0018712   
69186.0   0.0020494   
69232.0   0.0022454   
69278.0   0.001924   
69324.0   0.0018123   
69371.0   0.0020777   
69417.0   0.0022291   
69464.0   0.002204   
69510.0   0.0021078   
69557.0   0.0021214   
69603.0   0.0021503   
69650.0   0.0020794   
69697.0   0.0020799   
69744.0   0.0021301   
69791.0   0.0021162   
69838.0   0.0020499   
69885.0   0.0020067   
69932.0   0.0019481   
69979.0   0.001987   
70026.0   0.0021201   
70074.0   0.0020587   
70121.0   0.0019225   
70169.0   0.0020546   
70216.0   0.0024406   
70264.0   0.0023781   
70311.0   0.0018523   
70359.0   0.0018967   
70407.0   0.0022133   
70455.0   0.0022486   
70503.0   0.0021724   
70550.0   0.0019721   
70598.0   0.0020624   
70647.0   0.0022343   
70695.0   0.0019954   
70743.0   0.0018278   
70791.0   0.0018699   
70840.0   0.0019553   
70888.0   0.0018863   
70937.0   0.0015948   
70985.0   0.0014089   
71034.0   0.001265   
71082.0   0.0011871   
71131.0   0.0011143   
71180.0   0.00091834   
71229.0   0.0011182   
71278.0   0.0011434   
71327.0   0.00075479   
71376.0   0.00080172   
71425.0   0.0011854   
71474.0   0.0011408   
71524.0   0.00087723   
71573.0   0.00086362   
71622.0   0.000906   
71672.0   0.00088371   
71721.0   0.00083711   
71771.0   0.00076223   
71821.0   0.00084363   
71871.0   0.00083499   
71920.0   0.00077069   
71970.0   0.00066262   
72020.0   0.00035598   
72070.0   0.00053938   
72120.0   0.00073274   
72171.0   0.00043776   
72221.0   0.00046783   
72271.0   0.00071244   
72322.0   0.00064319   
72372.0   0.00061595   
72423.0   0.00054759   
72473.0   0.00034277   
72524.0   0.00024004   
72575.0   0.00036303   
72625.0   0.00040092   
72676.0   0.00019187   
72727.0   4.2299e-05   
72778.0   0.00033594   
72829.0   0.0003645   
72881.0   0.00014761   
72932.0   0.00050567   
72983.0   0.0004722   
73035.0   0.00030581   
73086.0   0.00022079   
73138.0   8.1626e-06   
73189.0   1.693e-05   
73241.0   0.00014624   
73293.0   0.00028606   
73345.0   0.00014928   
73396.0   0.00025759   
73448.0   7.162e-05   
73500.0   0.00021073   
73553.0   4.9269e-05   
73605.0   4.7764e-05   
73657.0   7.1561e-05   
73709.0   0.00020143   
73762.0   3.521e-05   
73814.0   0.0   
73867.0   0.00042632   
73920.0   0.00038931   
73972.0   5.7063e-05   
74025.0   1.446e-05   
74078.0   0.00036856   
74131.0   0.0   
74184.0   0.00029735   
74237.0   0.00033665   
74290.0   0.00040032   
74344.0   0.00044614   
74397.0   0.00051762   
74450.0   0.00012425   
74504.0   0.00024996   
74557.0   0.0011996   
74611.0   0.0013586   
74665.0   0.0010197   
74718.0   0.0015575   
74772.0   0.0018798   
74826.0   0.001631   
74880.0   0.0016661   
74934.0   0.001279   
74989.0   0.0012331   
75043.0   0.0019518   
75097.0   0.0016696   
75152.0   0.0012076   
75206.0   0.0015737   
75261.0   0.0017081   
75315.0   0.0016057   
75370.0   0.0015191   
75425.0   0.0015599   
75480.0   0.0016456   
75535.0   0.0016501   
75590.0   0.0019133   
75645.0   0.001688   
75700.0   0.0013833   
75755.0   0.0017216   
75811.0   0.0014911   
75866.0   0.0013428   
75922.0   0.0014812   
75977.0   0.0010777   
76033.0   0.0014147   
76089.0   0.0015543   
76145.0   0.00094395   
76201.0   0.0010223   
76257.0   0.00075986   
76313.0   0.00032983   
76369.0   0.00058662   
76425.0   0.00034508   
76482.0   0.00027317   
76538.0   0.00019867   
76595.0   0.00033235   
76651.0   0.0003192   
76708.0   0.0   
76765.0   0.00012282   
76822.0   0.00024082   
76879.0   0.00026405   
76936.0   0.00041339   
76993.0   0.00048275   
77050.0   0.00018621   
77107.0   0.00019423   
77165.0   0.0   
77222.0   0.00038918   
77280.0   0.00072683   
77337.0   0.00031344   
77395.0   9.5231e-05   
77453.0   0.00016382   
77511.0   0.00023555   
77569.0   0.00018491   
77627.0   0.00038468   
77685.0   0.00031867   
77743.0   0.00021362   
77801.0   0.00026695   
77860.0   0.00026676   
77918.0   0.00025403   
77977.0   8.6833e-05   
78035.0   0.00033506   
78094.0   0.00060309   
78153.0   0.00029367   
78212.0   0.00076654   
78271.0   0.00093808   
78330.0   0.00014461   
78389.0   0.00014641   
78449.0   0.00024399   
78508.0   0.00029563   
78568.0   0.00024089   
78627.0   0.00011563   
78687.0   1.1006e-05   
78747.0   0.00051496   
78806.0   0.00055718   
78866.0   9.8345e-05   
78926.0   0.00044005   
78986.0   0.00071388   
79047.0   0.00014525   
79107.0   0.00059009   
79167.0   0.00094676   
79228.0   0.0009666   
79288.0   0.00010933   
79349.0   0.0   
79410.0   0.00087246   
79471.0   0.00040935   
79532.0   0.0   
79593.0   0.00082204   
79654.0   0.00096556   
79715.0   0.00055766   
79776.0   0.00047569   
79838.0   0.00082689   
79899.0   0.0009026   
79961.0   0.0008552   
80023.0   0.00078673   
80084.0   0.0011081   
80146.0   0.00075952   
80208.0   0.00074747   
80270.0   0.00086741   
80332.0   0.00066509   
80395.0   0.0010213   
80457.0   0.0012122   
80520.0   0.00067529   
80582.0   0.000772   
80645.0   0.0013155   
80708.0   0.001208   
80770.0   0.00069234   
80833.0   0.0010867   
80896.0   0.0016455   
80960.0   0.0015704   
81023.0   0.0019275   
81086.0   0.0023239   
81150.0   0.0021117   
81213.0   0.0020953   
81277.0   0.0023397   
81341.0   0.0024221   
81404.0   0.0023926   
81468.0   0.0024934   
81532.0   0.0028964   
81597.0   0.0031815   
81661.0   0.0029132   
81725.0   0.0028204   
81790.0   0.0033429   
81854.0   0.0038289   
81919.0   0.0039524   
81984.0   0.0044857   
82048.0   0.0044898   
82113.0   0.0042447   
82178.0   0.0053281   
82244.0   0.0055632   
82309.0   0.0054221   
82374.0   0.0062394   
82440.0   0.0067402   
82505.0   0.0079958   
82571.0   0.0088196   
82637.0   0.0087528   
82703.0   0.010097   
82769.0   0.011338   
82835.0   0.011702   
82901.0   0.012586   
82967.0   0.013795   
83034.0   0.014808   
83100.0   0.016018   
83167.0   0.017559   
83234.0   0.01934   
83301.0   0.021093   
83368.0   0.022591   
83435.0   0.024846   
83502.0   0.027541   
83569.0   0.02953   
83636.0   0.032096   
83704.0   0.035944   
83772.0   0.03951   
83839.0   0.043015   
83907.0   0.047293   
83975.0   0.052069   
84043.0   0.057787   
84111.0   0.063552   
84180.0   0.069655   
84248.0   0.077519   
84316.0   0.085851   
84385.0   0.094208   
84454.0   0.10407   
84523.0   0.1157   
84592.0   0.12787   
84661.0   0.14148   
84730.0   0.157   
84799.0   0.17326   
84868.0   0.19112   
84938.0   0.21108   
85008.0   0.23298   
85077.0   0.25663   
85147.0   0.2825   
85217.0   0.31031   
85287.0   0.33894   
85357.0   0.36971   
85428.0   0.4021   
85498.0   0.43593   
85569.0   0.47051   
85639.0   0.50545   
85710.0   0.54086   
85781.0   0.57467   
85852.0   0.60757   
85923.0   0.63945   
85994.0   0.66985   
86066.0   0.69781   
86137.0   0.72278   
86209.0   0.74625   
86281.0   0.76581   
86352.0   0.783   
86424.0   0.79977   
86496.0   0.81284   
86569.0   0.82275   
86641.0   0.83119   
86713.0   0.83811   
86786.0   0.84288   
86859.0   0.84614   
86931.0   0.84878   
87004.0   0.85027   
87077.0   0.85154   
87151.0   0.85231   
87224.0   0.85204   
87297.0   0.85233   
87371.0   0.85246   
87444.0   0.85211   
87518.0   0.85179   
87592.0   0.84999   
87666.0   0.84931   
87740.0   0.85079   
87815.0   0.85044   
87889.0   0.85   
87964.0   0.8507   
88038.0   0.85044   
88113.0   0.85039   
88188.0   0.85101   
88263.0   0.85098   
88338.0   0.8507   
88414.0   0.85143   
88489.0   0.85277   
88565.0   0.85295   
88640.0   0.85316   
88716.0   0.85435   
88792.0   0.85523   
88868.0   0.85617   
88944.0   0.85734   
89021.0   0.85871   
89097.0   0.86089   
89174.0   0.86321   
89251.0   0.8658   
89327.0   0.86859   
89404.0   0.86946   
89482.0   0.87011   
89559.0   0.87287   
89636.0   0.87484   
89714.0   0.87674   
89791.0   0.88007   
89869.0   0.8823   
89947.0   0.8852   
90025.0   0.88925   
90104.0   0.89234   
90182.0   0.89491   
90260.0   0.8963   
90339.0   0.89835   
90418.0   0.90052   
90497.0   0.901   
90576.0   0.90232   
90655.0   0.90461   
90734.0   0.906   
90814.0   0.90701   
90893.0   0.90888   
90973.0   0.90945   
91053.0   0.90926   
91133.0   0.91097   
91213.0   0.9115   
91293.0   0.91135   
91374.0   0.91268   
91454.0   0.91472   
91535.0   0.91718   
91616.0   0.91774   
91697.0   0.91828   
91778.0   0.92018   
91859.0   0.92114   
91941.0   0.92212   
92022.0   0.92268   
92104.0   0.92253   
92186.0   0.92318   
92268.0   0.92411   
92350.0   0.92578   
92432.0   0.92672   
92515.0   0.92623   
92597.0   0.92806   
92680.0   0.92955   
92763.0   0.92849   
92846.0   0.92904   
92929.0   0.93008   
93013.0   0.92985   
93096.0   0.92982   
93180.0   0.93059   
93264.0   0.93181   
93348.0   0.93266   
93432.0   0.93447   
93516.0   0.93561   
93600.0   0.93398   
93685.0   0.93377   
93770.0   0.93519   
93854.0   0.93544   
93939.0   0.93569   
94025.0   0.93531   
94110.0   0.9352   
94195.0   0.93698   
94281.0   0.93744   
94367.0   0.93754   
94453.0   0.93747   
94539.0   0.9369   
94625.0   0.93795   
94712.0   0.93758   
94798.0   0.93737   
94885.0   0.93845   
94972.0   0.93702   
95059.0   0.93677   
95146.0   0.93878   
95233.0   0.93988   
95321.0   0.93978   
95409.0   0.9408   
95496.0   0.94353   
95584.0   0.94533   
95673.0   0.94696   
95761.0   0.94881   
95850.0   0.95031   
95938.0   0.95228   
96027.0   0.95383   
96116.0   0.9551   
96205.0   0.9557   
96294.0   0.957   
96384.0   0.95917   
96474.0   0.95929   
96563.0   0.96008   
96653.0   0.96287   
96744.0   0.96431   
96834.0   0.96434   
96924.0   0.96485   
97015.0   0.9663   
97106.0   0.96793   
97197.0   0.969   
97288.0   0.96888   
97380.0   0.96932   
97471.0   0.97102   
97563.0   0.97157   
97655.0   0.97167   
97747.0   0.97291   
97839.0   0.97408   
97931.0   0.97464   
98024.0   0.97568   
98117.0   0.97702   
98209.0   0.97714   
98303.0   0.9771   
98396.0   0.97837   
98489.0   0.97998   
98583.0   0.98161   
98677.0   0.98451   
98771.0   0.98654   
98865.0   0.98683   
98959.0   0.98838   
99054.0   0.99009   
99148.0   0.99216   
99243.0   0.99507   
99338.0   0.99489   
99434.0   0.99388   
99529.0   0.99577   
99625.0   0.99742   
99720.0   0.99845   
99816.0   1.0   
99913.0   0.99944   
100009.0   0.99761   
100105.0   0.9957   
100202.0   0.99358   
100299.0   0.98958   
100396.0   0.98667   
100493.0   0.98398   
100591.0   0.98127   
100689.0   0.97941   
100786.0   0.97488   
100884.0   0.97025   
100983.0   0.96811   
101081.0   0.9649   
101180.0   0.962   
101278.0   0.95995   
101377.0   0.95692   
101477.0   0.95431   
101576.0   0.95284   
101676.0   0.95093   
101775.0   0.94708   
101875.0   0.9439   
101976.0   0.94286   
102076.0   0.94042   
102177.0   0.93703   
102277.0   0.93596   
102378.0   0.93403   
102479.0   0.93063   
102581.0   0.92837   
102682.0   0.92552   
102784.0   0.92288   
102886.0   0.91987   
102988.0   0.91693   
103091.0   0.91574   
103193.0   0.91275   
103296.0   0.91037   
103399.0   0.9094   
103502.0   0.90574   
103606.0   0.90219   
103709.0   0.90079   
103813.0   0.89799   
103917.0   0.89329   
104021.0   0.89025   
104126.0   0.88708   
104230.0   0.8823   
104335.0   0.87953   
104440.0   0.87695   
104546.0   0.87231   
104651.0   0.86908   
104757.0   0.86648   
104863.0   0.86161   
104969.0   0.85785   
105075.0   0.85631   
105182.0   0.85373   
105289.0   0.85499   
105396.0   0.85626   
105503.0   0.85528   
105610.0   0.85631   
105718.0   0.85656   
105826.0   0.85591   
105934.0   0.85665   
106042.0   0.85772   
106151.0   0.85801   
106259.0   0.85774   
106368.0   0.8583   
106478.0   0.85961   
106587.0   0.86084   
106697.0   0.86154   
106807.0   0.86238   
106917.0   0.86335   
107027.0   0.86521   
107138.0   0.86745   
107248.0   0.8677   
107359.0   0.8689   
107471.0   0.8711   
107582.0   0.87279   
107694.0   0.87703   
107806.0   0.88045   
107918.0   0.88107   
108030.0   0.88318   
108143.0   0.88552   
108256.0   0.8872   
108369.0   0.88907   
108482.0   0.89008   
108596.0   0.8921   
108710.0   0.89425   
108824.0   0.89517   
108938.0   0.8973   
109053.0   0.89854   
109168.0   0.89879   
109283.0   0.90018   
109398.0   0.89987   
109513.0   0.89908   
109629.0   0.89955   
109745.0   0.90021   
109861.0   0.89965   
109978.0   0.89747   
110095.0   0.89648   
110212.0   0.89559   
110329.0   0.89151   
110446.0   0.88927   
110564.0   0.88808   
110682.0   0.88582   
110800.0   0.88475   
110919.0   0.8824   
111038.0   0.87912   
111157.0   0.87945   
111276.0   0.88052   
111395.0   0.8784   
111515.0   0.87622   
111635.0   0.8757   
111756.0   0.87481   
111876.0   0.87449   
111997.0   0.87478   
112118.0   0.87444   
112239.0   0.87401   
112361.0   0.87291   
112483.0   0.87225   
112605.0   0.871   
112727.0   0.86913   
112850.0   0.869   
112973.0   0.86755   
113096.0   0.86528   
113220.0   0.86462   
113343.0   0.8635   
113467.0   0.86201   
113592.0   0.86041   
113716.0   0.85925   
113841.0   0.85816   
113966.0   0.85682   
114092.0   0.85544   
114217.0   0.85206   
114343.0   0.84883   
114469.0   0.84617   
114596.0   0.84261   
114723.0   0.83942   
114850.0   0.8366   
114977.0   0.83394   
115105.0   0.83   
115232.0   0.82667   
115361.0   0.82549   
115489.0   0.82419   
115618.0   0.82154   
115747.0   0.81882   
115876.0   0.81611   
116006.0   0.81364   
116136.0   0.81352   
116266.0   0.81299   
116396.0   0.80957   
116527.0   0.80632   
116658.0   0.80387   
116790.0   0.80094   
116921.0   0.79687   
117053.0   0.79186   
117186.0   0.78701   
117318.0   0.7825   
117451.0   0.77779   
117584.0   0.77357   
117718.0   0.76935   
117851.0   0.76409   
117985.0   0.7593   
118120.0   0.75382   
118254.0   0.74796   
118389.0   0.74486   
118525.0   0.73933   
118660.0   0.73162   
118796.0   0.72784   
118933.0   0.72294   
119069.0   0.71667   
119206.0   0.71325   
119343.0   0.70921   
119481.0   0.70425   
119618.0   0.70038   
119757.0   0.69611   
119895.0   0.69161   
120034.0   0.68926   
120173.0   0.6874   
120312.0   0.68499   
120452.0   0.68313   
120592.0   0.67943   
120732.0   0.67631   
120873.0   0.67465   
121014.0   0.67234   
121156.0   0.67056   
121297.0   0.66842   
121439.0   0.66573   
121582.0   0.66346   
121724.0   0.66062   
121867.0   0.65774   
122011.0   0.65578   
122155.0   0.65317   
122299.0   0.64972   
122443.0   0.64616   
122588.0   0.64235   
122733.0   0.63945   
122878.0   0.6349   
123024.0   0.62856   
123170.0   0.62491   
123317.0   0.62217   
123463.0   0.61695   
123610.0   0.61042   
123758.0   0.60631   
123906.0   0.60214   
124054.0   0.59525   
124203.0   0.59069   
124352.0   0.58686   
124501.0   0.58036   
124650.0   0.57463   
124800.0   0.57009   
124951.0   0.56452   
125102.0   0.55811   
125253.0   0.55113   
125404.0   0.54334   
125556.0   0.53635   
125708.0   0.5306   
125861.0   0.52451   
126014.0   0.51772   
126167.0   0.51118   
126321.0   0.50386   
126475.0   0.49697   
126629.0   0.49318   
126784.0   0.48911   
126939.0   0.48384   
127095.0   0.48004   
127251.0   0.47576   
127407.0   0.4698   
127564.0   0.46475   
127721.0   0.46052   
127878.0   0.45606   
128036.0   0.45247   
128194.0   0.44845   
128353.0   0.44264   
128512.0   0.4376   
128671.0   0.43307   
128831.0   0.4287   
128992.0   0.42585   
129152.0   0.42247   
129313.0   0.41758   
129475.0   0.41247   
129636.0   0.40697   
129799.0   0.4022   
129961.0   0.39811   
130124.0   0.39442   
130288.0   0.39166   
130452.0   0.38843   
130616.0   0.38461   
130781.0   0.38124   
130946.0   0.37754   
131111.0   0.3743   
131277.0   0.37174   
131444.0   0.36842   
131611.0   0.36538   
131778.0   0.36239   
131946.0   0.35913   
132114.0   0.35707   
132282.0   0.35383   
132451.0   0.3498   
132620.0   0.34779   
132790.0   0.34527   
132960.0   0.34239   
133131.0   0.34017   
133302.0   0.33697   
133474.0   0.33446   
133646.0   0.33196   
133818.0   0.32935   
133991.0   0.32795   
134165.0   0.32607   
134338.0   0.32367   
134513.0   0.32096   
134687.0   0.318   
134862.0   0.31746   
135038.0   0.31665   
135214.0   0.31475   
135391.0   0.31455   
135568.0   0.31439   
135745.0   0.31274   
135923.0   0.3119   
136101.0   0.31255   
136280.0   0.31217   
136459.0   0.31051   
136639.0   0.31054   
136819.0   0.31084   
137000.0   0.30939   
137181.0   0.30981   
137363.0   0.31083   
137545.0   0.31026   
137728.0   0.31052   
137911.0   0.31122   
138095.0   0.31089   
138279.0   0.31154   
138464.0   0.31186   
138649.0   0.31183   
138834.0   0.31306   
139020.0   0.31332   
139207.0   0.31279   
139394.0   0.3129   
139582.0   0.31326   
139770.0   0.31394   
139958.0   0.31421   
140148.0   0.31219   
140337.0   0.30967   
140527.0   0.30783   
140718.0   0.30605   
140909.0   0.30456   
141101.0   0.30171   
141293.0   0.29644   
141486.0   0.28948   
141679.0   0.2682   
141873.0   0.23224   
142067.0   0.2039   
142262.0   0.18539   
142458.0   0.16908   
142654.0   0.1556   
142850.0   0.14302   
143047.0   0.1316   
143245.0   0.12227   
143443.0   0.11273   
143642.0   0.10336   
143841.0   0.095562   
144041.0   0.088145   
144241.0   0.081368   
144442.0   0.074453   
144643.0   0.066692   
144845.0   0.060416   
145048.0   0.054156   
145251.0   0.047546   
145455.0   0.041675   
145659.0   0.0356   
145864.0   0.030105   
146069.0   0.024358   
146275.0   0.018895   
146482.0   0.014747   
146689.0   0.009683   
146897.0   0.0043895   
147105.0   0.0014648   
147314.0   0.00022441   
147524.0   0.0   
147734.0   0.00021748   
147945.0   0.0   
148156.0   0.00080631   
148368.0   0.0077605   
148580.0   0.023029   
148794.0   0.048841   
149007.0   0.07916   
149222.0   0.10498   
149437.0   0.12523   
149653.0   0.14147   
149869.0   0.15238   
150086.0   0.15862   
150303.0   0.16297   
150521.0   0.16399   
150740.0   0.16204   
150960.0   0.15895   
151180.0   0.15366   
151400.0   0.14652   
151622.0   0.13749   
151844.0   0.12664   
152066.0   0.11269   
152290.0   0.095681   
152514.0   0.076324   
152738.0   0.045276   
152963.0   0.011518   
153189.0   0.0   
153416.0   0.00059138   
153643.0   0.00044065   
153871.0   0.0005238   
154100.0   0.00045312   
154329.0   0.00034701   
154559.0   0.00081257   
154790.0   6.3429e-05   
155021.0   0.00081097   
155253.0   0.00057992   
155486.0   4.9008e-05   
155719.0   3.483e-05   
155954.0   0.0005252   
156189.0   0.00052316   
156424.0   0.00013965   
156660.0   0.00051759   
156897.0   0.00048966   
157135.0   0.00013972   
157374.0   0.00034315   
157613.0   0.00018025   
157853.0   0.00037595   
158093.0   0.00031391   
158335.0   0.00051308   
158577.0   0.00047374   
158820.0   1.406e-05   
159063.0   0.001433   
159307.0   0.003789   
159553.0   0.0043731   
159798.0   0.002661   
160045.0   0.0011345   
160292.0   0.0002955   
160541.0   0.00023482   
160789.0   0.00023964   
161039.0   0.00035375   
161290.0   0.00016105   
161541.0   0.00051472   
161793.0   0.00038905   
162046.0   0.00036361   
162299.0   5.4815e-05   
162554.0   0.00059349   
162809.0   0.00078766   
163065.0   0.00023754   
163322.0   0.0   
163579.0   0.0   
163838.0   0.00077714   
164097.0   0.0011627   
164357.0   0.0   
164618.0   0.00025356   
164879.0   0.00081905   
165142.0   0.0003105   
165405.0   0.00032182   
165670.0   0.00018682   
165935.0   0.00033675   
166201.0   0.00024544   
166467.0   0.00019365   
166735.0   0.000239   
167004.0   0.00024794   
167273.0   0.00024571   
167543.0   0.00067082   
167814.0   0.00082084   
168086.0   0.00021629   
168359.0   0.0   
168633.0   0.00064503   
168907.0   0.00058066   
169183.0   0.00048461   
169459.0   0.00029876   
169737.0   0.00048592   
170015.0   0.00035038   
170294.0   0.0004772   
170574.0   0.0   
170855.0   0.00024502   
171137.0   0.00066483   
171420.0   0.00028161   
171704.0   0.00034786   
171989.0   0.00028614   
172274.0   0.0002064   
172561.0   0.00081692   
172849.0   0.00017619   
173137.0   0.00029094   
173427.0   0.0010753   
173717.0   0.00080858   
174009.0   0.00056019   
174301.0   0.00080523   
174595.0   9.3161e-05   
174889.0   0.0002212   
175184.0   0.0003114   
175481.0   0.00042637   
175778.0   0.00032183   
176077.0   0.00065688   
176376.0   0.00059339   
176677.0   0.00044088   
176978.0   0.0   
177281.0   0.000129   
177584.0   0.00039958   
177889.0   0.00032607   
178194.0   0.00038333   
178501.0   0.00020058   
178809.0   0.00043851   
179118.0   0.00073441   
179428.0   0.0015436   
179739.0   0.0034346   
180051.0   0.0058646   
180364.0   0.0092426   
180678.0   0.014069   
180993.0   0.017827   
181310.0   0.020767   
181627.0   0.024346   
181946.0   0.027536   
182266.0   0.029921   
182587.0   0.030615   
182909.0   0.031472   
183232.0   0.031862   
183556.0   0.028032   
183882.0   0.02282   
184208.0   0.018849   
184536.0   0.01544   
184865.0   0.013018   
185195.0   0.011053   
185526.0   0.0093074   
185859.0   0.0077928   
186192.0   0.0062586   
186527.0   0.0048309   
186863.0   0.0031339   
187201.0   0.0021265   
187539.0   0.0017706   
187879.0   0.0011968   
188220.0   0.00092497   
188562.0   0.00036159   
188906.0   0.00029666   
189250.0   0.00039181   
189596.0   5.2224e-05   
189944.0   0.00020428   
190292.0   0.00036357   
190642.0   0.00041487   
190993.0   0.00053441   
191345.0   0.00033751   
191699.0   0.0004784   
192054.0   0.00055819   
192410.0   0.00029089   
192768.0   0.00014304   
193127.0   0.0   
193487.0   0.00041507   
193849.0   0.00036118   
194212.0   0.00017784   
194576.0   0.00011147   
194942.0   0.00041493   
195309.0   0.00012634   
195678.0   0.00011133   
196048.0   7.7626e-05   
196419.0   0.0   
196792.0   0.00030297   
197166.0   0.00037817   
197541.0   0.00016257   
197918.0   0.00014483   
198297.0   0.00032728   
198677.0   0.0002073   
199058.0   3.2786e-05   
199441.0   0.00043441   
199825.0   0.00033136   
200000.0   0.0   
