# from ASAGIO
#wave(NM)   resp   
82000.0   0.04   
83000.0   0.22   
84000.0   0.41   
85000.0   0.43   
86000.0   0.56   
87000.0   0.57   
88000.0   0.51   
89000.0   0.49   
90000.0   0.52   
91000.0   0.54   
92000.0   0.53   
93000.0   0.49   
94000.0   0.46   
95000.0   0.45   
96000.0   0.47   
97000.0   0.51   
98000.0   0.53   
99000.0   0.56   
100000.0   0.57   
101000.0   0.59   
102000.0   0.59   
103000.0   0.63   
104000.0   0.63   
105000.0   0.63   
106000.0   0.6   
107000.0   0.59   
108000.0   0.45   
109000.0   0.26   
110000.0   0.11   
111000.0   0.06   
112000.0   0.05   
113000.0   0.07   
114000.0   0.03   
