# The following tables show the relative spectral response (RSR) curves, which take account of the photon to energy conversion of the detector quantum efficiency by multiplying by the wavelengths (FAD = Filter and Detector).
#Thus these RSRs can directly be integrated over spectra given as $F_\lambda$ to obtain the in-band fluxes.
#These RSRs have been prepared in collaboration with Martin Cohen and assure the common calibration of the IRC with other missions and ground-based instruments, including Subaru/COMICS, in the framework of the absolute calibration network provided by Martin Cohen and his colleagues.
#The present RSRs are prepared on the basis of the best laboratory measurements of the optical elements of the IRC
#http://www.ir.isas.jaxa.jp/ASTRO-F/Observation/RSRF/IRC_FAD/index.html
#wave   response   
40000.0   0.0   
40011.0   1.7081e-05   
40027.0   1.6119e-05   
40042.0   1.741e-05   
40058.0   1.896e-05   
40073.0   1.7371e-05   
40089.0   1.5786e-05   
40104.0   1.7986e-05   
40120.0   1.9815e-05   
40135.0   1.7104e-05   
40151.0   1.5767e-05   
40166.0   1.7289e-05   
40182.0   1.8176e-05   
40197.0   1.92e-05   
40213.0   1.7022e-05   
40229.0   1.5121e-05   
40244.0   1.784e-05   
40260.0   1.8509e-05   
40275.0   1.7519e-05   
40291.0   1.7015e-05   
40307.0   1.6034e-05   
40322.0   1.6959e-05   
40338.0   1.8336e-05   
40354.0   1.8148e-05   
40369.0   1.6809e-05   
40385.0   1.6729e-05   
40401.0   1.7828e-05   
40417.0   1.5953e-05   
40432.0   1.5495e-05   
40448.0   1.773e-05   
40464.0   1.7439e-05   
40480.0   1.8029e-05   
40496.0   1.7822e-05   
40511.0   1.5319e-05   
40527.0   1.6636e-05   
40543.0   1.71e-05   
40559.0   1.5707e-05   
40575.0   1.6135e-05   
40591.0   1.7765e-05   
40607.0   2.0375e-05   
40622.0   1.98e-05   
40638.0   1.7826e-05   
40654.0   1.8846e-05   
40670.0   1.9286e-05   
40686.0   1.8687e-05   
40702.0   1.8629e-05   
40718.0   1.8814e-05   
40734.0   2.0814e-05   
40750.0   2.2514e-05   
40766.0   2.0554e-05   
40782.0   2.1225e-05   
40798.0   2.3183e-05   
40814.0   2.1562e-05   
40830.0   2.138e-05   
40846.0   1.9714e-05   
40863.0   1.792e-05   
40879.0   1.9776e-05   
40895.0   1.8922e-05   
40911.0   1.7402e-05   
40927.0   1.8536e-05   
40943.0   1.8016e-05   
40959.0   1.6784e-05   
40976.0   1.6875e-05   
40992.0   1.6056e-05   
41008.0   1.585e-05   
41024.0   1.7631e-05   
41040.0   1.8119e-05   
41057.0   1.6892e-05   
41073.0   1.6166e-05   
41089.0   1.6998e-05   
41105.0   1.722e-05   
41122.0   1.6331e-05   
41138.0   1.6358e-05   
41154.0   1.6512e-05   
41171.0   1.6707e-05   
41187.0   1.7119e-05   
41203.0   1.6942e-05   
41220.0   1.8874e-05   
41236.0   2.0801e-05   
41253.0   1.8181e-05   
41269.0   1.5956e-05   
41286.0   1.6858e-05   
41302.0   1.686e-05   
41318.0   1.6795e-05   
41335.0   1.6896e-05   
41351.0   1.6242e-05   
41368.0   1.6748e-05   
41384.0   1.774e-05   
41401.0   1.709e-05   
41417.0   1.4689e-05   
41434.0   1.5055e-05   
41451.0   1.7757e-05   
41467.0   1.6463e-05   
41484.0   1.4243e-05   
41500.0   1.4404e-05   
41517.0   1.564e-05   
41534.0   1.6374e-05   
41550.0   1.3585e-05   
41567.0   1.2951e-05   
41583.0   1.5898e-05   
41600.0   1.5325e-05   
41617.0   1.3968e-05   
41634.0   1.4534e-05   
41650.0   1.4498e-05   
41667.0   1.4212e-05   
41684.0   1.3676e-05   
41701.0   1.3472e-05   
41717.0   1.4359e-05   
41734.0   1.3746e-05   
41751.0   1.1497e-05   
41768.0   1.1268e-05   
41785.0   1.1469e-05   
41801.0   1.0777e-05   
41818.0   1.2629e-05   
41835.0   1.2779e-05   
41852.0   9.7469e-06   
41869.0   1.0264e-05   
41886.0   1.1816e-05   
41903.0   1.0381e-05   
41920.0   7.8927e-06   
41937.0   6.6107e-06   
41954.0   8.1991e-06   
41971.0   9.4855e-06   
41988.0   8.7228e-06   
42005.0   1.0468e-05   
42022.0   1.1473e-05   
42039.0   9.2132e-06   
42056.0   7.4065e-06   
42073.0   6.006e-06   
42090.0   5.5538e-06   
42107.0   6.3729e-06   
42124.0   5.9831e-06   
42141.0   7.7023e-06   
42158.0   8.0737e-06   
42175.0   4.2924e-06   
42193.0   4.3747e-06   
42210.0   5.7799e-06   
42227.0   4.7099e-06   
42244.0   4.9856e-06   
42261.0   4.1511e-06   
42279.0   3.8777e-06   
42296.0   5.2863e-06   
42313.0   3.9985e-06   
42330.0   3.5373e-06   
42348.0   2.4503e-06   
42365.0   1.3054e-06   
42382.0   4.2289e-06   
42400.0   4.2841e-06   
42417.0   2.8398e-06   
42434.0   3.7607e-06   
42452.0   3.254e-06   
42469.0   2.3489e-06   
42486.0   3.0587e-06   
42504.0   2.1976e-06   
42521.0   2.6744e-06   
42539.0   2.163e-06   
42556.0   1.025e-06   
42574.0   3.0214e-06   
42591.0   3.8645e-06   
42609.0   1.4232e-06   
42626.0   2.5648e-06   
42644.0   4.2478e-06   
42661.0   2.1874e-06   
42679.0   2.1406e-06   
42696.0   2.551e-06   
42714.0   1.584e-06   
42731.0   0.0   
42749.0   1.1305e-06   
42767.0   1.8718e-06   
42784.0   5.7326e-07   
42802.0   9.5672e-07   
42820.0   4.0979e-07   
42837.0   2.6284e-06   
42855.0   7.5465e-07   
42873.0   2.2285e-06   
42890.0   2.3393e-06   
42908.0   1.4071e-06   
42926.0   1.7701e-06   
42944.0   1.9659e-06   
42962.0   9.4857e-07   
42979.0   1.388e-06   
42997.0   1.7455e-06   
43015.0   3.7688e-07   
43033.0   1.1281e-06   
43051.0   9.7034e-07   
43069.0   1.8511e-06   
43086.0   1.7791e-06   
43104.0   1.4585e-06   
43122.0   2.2027e-06   
43140.0   2.0411e-06   
43158.0   5.8005e-07   
43176.0   0.0   
43194.0   1.0904e-06   
43212.0   1.2483e-06   
43230.0   0.0   
43248.0   1.3528e-06   
43266.0   1.3591e-06   
43284.0   1.4385e-06   
43302.0   2.278e-06   
43320.0   4.9232e-07   
43339.0   1.1421e-06   
43357.0   2.404e-06   
43375.0   2.8931e-07   
43393.0   4.7322e-07   
43411.0   2.2509e-07   
43429.0   1.133e-06   
43447.0   1.0682e-06   
43466.0   3.7891e-07   
43484.0   1.335e-06   
43502.0   9.3554e-07   
43520.0   2.7042e-07   
43539.0   1.1415e-06   
43557.0   1.232e-06   
43575.0   1.2583e-06   
43594.0   1.8348e-06   
43612.0   9.2606e-07   
43630.0   6.4865e-07   
43649.0   7.9221e-07   
43667.0   0.0   
43685.0   4.3535e-07   
43704.0   6.6068e-07   
43722.0   2.3378e-08   
43741.0   8.5899e-07   
43759.0   1.2144e-06   
43778.0   1.7879e-06   
43796.0   5.1708e-07   
43815.0   1.6161e-06   
43833.0   4.6188e-07   
43852.0   1.8823e-06   
43870.0   1.147e-06   
43889.0   6.6855e-07   
43907.0   8.7819e-07   
43926.0   1.22e-06   
43945.0   7.6806e-07   
43963.0   4.596e-07   
43982.0   6.2238e-07   
44001.0   9.4954e-07   
44019.0   1.7881e-06   
44038.0   2.0891e-06   
44057.0   1.6561e-06   
44075.0   1.4173e-06   
44094.0   1.2131e-06   
44113.0   1.0572e-06   
44132.0   1.1709e-06   
44150.0   1.2426e-06   
44169.0   1.0391e-06   
44188.0   1.4338e-06   
44207.0   1.4742e-06   
44226.0   8.6751e-07   
44245.0   1.0619e-06   
44263.0   1.303e-06   
44282.0   3.5742e-07   
44301.0   4.794e-07   
44320.0   6.6437e-07   
44339.0   8.6462e-07   
44358.0   1.1889e-06   
44377.0   7.878e-07   
44396.0   9.4449e-07   
44415.0   6.8724e-07   
44434.0   1.6056e-07   
44453.0   3.0551e-07   
44472.0   9.2098e-08   
44491.0   5.3479e-07   
44510.0   4.9916e-07   
44529.0   5.662e-08   
44549.0   3.1258e-07   
44568.0   7.8485e-07   
44587.0   5.0632e-07   
44606.0   3.5833e-07   
44625.0   0.0   
44644.0   5.6629e-07   
44664.0   5.6252e-07   
44683.0   2.8476e-07   
44702.0   1.5572e-07   
44722.0   5.761e-07   
44741.0   4.4795e-07   
44760.0   2.5564e-07   
44779.0   0.0   
44799.0   9.0771e-07   
44818.0   7.7101e-07   
44838.0   3.7847e-07   
44857.0   3.505e-07   
44876.0   2.2827e-07   
44896.0   2.3082e-07   
44915.0   2.332e-07   
44935.0   0.0   
44954.0   3.9078e-08   
44974.0   1.0463e-07   
44993.0   2.9456e-07   
45013.0   3.0881e-07   
45032.0   4.2852e-07   
45052.0   3.045e-09   
45071.0   2.9485e-07   
45091.0   2.8756e-07   
45111.0   0.0   
45130.0   2.5934e-07   
45150.0   5.8381e-07   
45170.0   4.0042e-07   
45189.0   3.7678e-07   
45209.0   1.9342e-07   
45229.0   4.2367e-07   
45248.0   1.1375e-07   
45268.0   5.6932e-07   
45288.0   3.8502e-07   
45308.0   1.0103e-07   
45327.0   1.3616e-07   
45347.0   4.1299e-07   
45367.0   3.1789e-07   
45387.0   3.7664e-08   
45407.0   4.6687e-07   
45427.0   5.7723e-07   
45447.0   4.3324e-08   
45467.0   1.7635e-08   
45486.0   4.2304e-07   
45506.0   1.3071e-07   
45526.0   4.9649e-07   
45546.0   2.4274e-07   
45566.0   1.0799e-07   
45586.0   4.4755e-07   
45606.0   7.9074e-07   
45627.0   3.0506e-07   
45647.0   3.5254e-07   
45667.0   2.0965e-07   
45687.0   3.0781e-07   
45707.0   5.6448e-07   
45727.0   9.8653e-07   
45747.0   4.2977e-07   
45768.0   3.7072e-07   
45788.0   8.5132e-07   
45808.0   4.3257e-07   
45828.0   8.9148e-09   
45848.0   3.1046e-07   
45869.0   4.8125e-07   
45889.0   3.4265e-07   
45909.0   3.1068e-07   
45930.0   4.3046e-07   
45950.0   1.3602e-07   
45970.0   1.3591e-06   
45991.0   4.0576e-07   
46011.0   0.0   
46032.0   1.0592e-06   
46052.0   6.8161e-07   
46072.0   1.4718e-06   
46093.0   8.6028e-07   
46113.0   0.0   
46134.0   7.4644e-07   
46155.0   3.2664e-07   
46175.0   2.1653e-06   
46196.0   2.0322e-06   
46216.0   4.1625e-07   
46237.0   5.689e-07   
46257.0   1.8421e-06   
46278.0   1.9309e-06   
46299.0   0.0   
46319.0   2.686e-06   
46340.0   1.2163e-06   
46361.0   1.7535e-06   
46382.0   1.3521e-06   
46402.0   5.6496e-07   
46423.0   6.9618e-07   
46444.0   2.2966e-06   
46465.0   1.3218e-06   
46486.0   4.6681e-07   
46506.0   3.1689e-06   
46527.0   3.6685e-06   
46548.0   5.5219e-07   
46569.0   3.9728e-06   
46590.0   3.1149e-06   
46611.0   3.4951e-06   
46632.0   6.3682e-07   
46653.0   1.9825e-06   
46674.0   4.5033e-06   
46695.0   1.8831e-06   
46716.0   2.806e-06   
46737.0   5.1567e-06   
46758.0   5.0485e-06   
46779.0   2.6114e-06   
46800.0   2.3086e-06   
46821.0   2.4791e-06   
46842.0   2.7524e-06   
46864.0   4.0629e-06   
46885.0   3.6678e-06   
46906.0   6.5265e-06   
46927.0   5.3887e-06   
46948.0   3.5526e-06   
46970.0   1.9756e-06   
46991.0   8.5319e-06   
47012.0   3.7369e-07   
47034.0   4.5427e-06   
47055.0   0.0   
47076.0   4.4857e-06   
47098.0   2.8294e-06   
47119.0   6.4612e-06   
47141.0   2.6672e-06   
47162.0   0.0   
47183.0   4.1868e-06   
47205.0   5.3453e-06   
47226.0   5.263e-06   
47248.0   2.9106e-06   
47269.0   5.4482e-07   
47291.0   5.1385e-06   
47313.0   6.4638e-07   
47334.0   0.0   
47356.0   1.1762e-05   
47377.0   6.181e-06   
47399.0   6.8892e-06   
47421.0   5.9466e-06   
47442.0   1.0924e-06   
47464.0   5.2494e-06   
47486.0   8.6897e-06   
47508.0   9.3504e-06   
47529.0   0.0   
47551.0   1.2859e-05   
47573.0   8.8012e-06   
47595.0   5.3187e-06   
47617.0   6.6119e-06   
47639.0   1.3673e-05   
47660.0   1.0171e-06   
47682.0   7.4894e-06   
47704.0   1.8447e-05   
47726.0   1.7629e-05   
47748.0   7.6838e-06   
47770.0   9.7277e-06   
47792.0   3.3636e-06   
47814.0   1.0613e-05   
47836.0   1.4264e-05   
47858.0   2.1592e-05   
47881.0   1.7632e-05   
47903.0   4.4184e-06   
47925.0   0.0   
47947.0   1.0092e-05   
47969.0   8.677e-06   
47991.0   0.0   
48014.0   6.5859e-06   
48036.0   8.6165e-06   
48058.0   8.5576e-06   
48080.0   4.608e-06   
48103.0   2.0296e-05   
48125.0   7.5657e-06   
48147.0   2.5083e-05   
48170.0   1.9748e-05   
48192.0   6.539e-06   
48214.0   1.8151e-05   
48237.0   8.8598e-06   
48259.0   4.7444e-08   
48282.0   1.9363e-06   
48304.0   1.1676e-05   
48327.0   1.3473e-05   
48349.0   0.0   
48372.0   7.7412e-07   
48394.0   2.2469e-05   
48417.0   1.0197e-05   
48440.0   3.063e-05   
48462.0   2.5025e-06   
48485.0   1.6943e-05   
48508.0   1.293e-05   
48530.0   1.5057e-05   
48553.0   2.5317e-05   
48576.0   5.0086e-06   
48598.0   1.6482e-05   
48621.0   1.8701e-05   
48644.0   8.8584e-06   
48667.0   1.7648e-06   
48690.0   1.1756e-05   
48713.0   2.2278e-05   
48736.0   5.8989e-06   
48758.0   2.3631e-05   
48781.0   2.0237e-06   
48804.0   9.3543e-06   
48827.0   2.2871e-05   
48850.0   1.6683e-05   
48873.0   1.6224e-05   
48896.0   2.3835e-05   
48919.0   1.4471e-05   
48943.0   4.8663e-05   
48966.0   3.2137e-05   
48989.0   2.051e-05   
49012.0   4.0456e-05   
49035.0   4.892e-05   
49058.0   2.3712e-05   
49081.0   1.9131e-05   
49105.0   1.8944e-05   
49128.0   1.0364e-05   
49151.0   2.9791e-05   
49175.0   3.1824e-05   
49198.0   1.3706e-05   
49221.0   3.0876e-05   
49245.0   1.3663e-05   
49268.0   1.1221e-06   
49291.0   1.9861e-05   
49315.0   3.3608e-05   
49338.0   0.0   
49362.0   0.0   
49385.0   4.0614e-05   
49409.0   2.3719e-05   
49432.0   3.2506e-05   
49456.0   1.8818e-05   
49480.0   8.2226e-06   
49503.0   1.7883e-05   
49527.0   4.1386e-05   
49550.0   3.938e-05   
49574.0   1.5469e-06   
49598.0   1.8269e-05   
49622.0   0.0   
49645.0   4.2887e-05   
49669.0   3.9301e-05   
49693.0   2.8788e-05   
49717.0   9.2086e-05   
49741.0   2.2475e-05   
49764.0   0.0   
49788.0   0.0   
49812.0   9.1103e-05   
49836.0   3.9192e-05   
49860.0   6.9149e-05   
49884.0   5.4506e-05   
49908.0   3.553e-05   
49932.0   8.0703e-06   
49956.0   1.6877e-05   
49980.0   5.0441e-05   
50004.0   5.1078e-05   
50029.0   3.8307e-05   
50053.0   4.8907e-05   
50077.0   5.7776e-05   
50101.0   3.9436e-05   
50125.0   9.6987e-06   
50150.0   4.7941e-05   
50174.0   1.3902e-05   
50198.0   5.1332e-05   
50222.0   2.2666e-06   
50247.0   0.0   
50271.0   7.0663e-05   
50295.0   6.8429e-05   
50320.0   3.9607e-05   
50344.0   8.8758e-05   
50369.0   0.00011912   
50393.0   4.9763e-05   
50418.0   7.0591e-05   
50442.0   2.5847e-05   
50467.0   2.1918e-05   
50491.0   5.6105e-05   
50516.0   5.6141e-05   
50541.0   2.6679e-05   
50565.0   3.3485e-05   
50590.0   5.6829e-05   
50615.0   9.4915e-05   
50639.0   9.8984e-05   
50664.0   0.0   
50689.0   7.9671e-05   
50714.0   5.6131e-05   
50738.0   1.9707e-05   
50763.0   6.9436e-05   
50788.0   5.2641e-05   
50813.0   3.0922e-05   
50838.0   5.8701e-05   
50863.0   6.929e-05   
50888.0   6.8299e-05   
50913.0   6.376e-05   
50938.0   0.00010835   
50963.0   0.00010314   
50988.0   3.5907e-05   
51013.0   5.0313e-05   
51038.0   3.5055e-05   
51063.0   9.2295e-05   
51088.0   4.2533e-05   
51113.0   1.9617e-05   
51139.0   6.7756e-05   
51164.0   3.9429e-05   
51189.0   2.3776e-05   
51214.0   7.9267e-05   
51240.0   3.7514e-05   
51265.0   4.79e-05   
51290.0   8.5194e-05   
51316.0   0.0001159   
51341.0   0.00012176   
51367.0   0.00010493   
51392.0   4.2927e-05   
51418.0   9.1738e-05   
51443.0   8.9463e-05   
51469.0   5.9364e-05   
51494.0   0.0   
51520.0   2.5565e-05   
51545.0   0.00013844   
51571.0   7.8121e-05   
51597.0   2.9883e-05   
51622.0   0.00016416   
51648.0   0.00018988   
51674.0   0.00016111   
51699.0   9.5206e-06   
51725.0   0.00012884   
51751.0   6.4125e-05   
51777.0   7.4051e-05   
51803.0   0.00012735   
51829.0   0.0001037   
51855.0   0.00019138   
51881.0   0.0002749   
51906.0   8.0419e-05   
51932.0   7.6177e-05   
51959.0   0.00023734   
51985.0   9.4426e-05   
52011.0   9.1124e-05   
52037.0   0.00027523   
52063.0   0.00024634   
52089.0   0.00010949   
52115.0   0.00011642   
52141.0   0.0002637   
52168.0   0.00029217   
52194.0   0.00019659   
52220.0   0.00019378   
52246.0   0.00012416   
52273.0   0.00017479   
52299.0   0.0003057   
52326.0   0.00028876   
52352.0   0.00015385   
52378.0   0.00017872   
52405.0   0.00034778   
52431.0   0.00037953   
52458.0   0.00014088   
52484.0   0.00016318   
52511.0   0.00031277   
52538.0   0.00026354   
52564.0   0.00030653   
52591.0   0.00041845   
52618.0   0.00040184   
52644.0   0.00035325   
52671.0   0.00041686   
52698.0   0.00036097   
52725.0   0.00029595   
52751.0   0.00040489   
52778.0   0.00045402   
52805.0   0.00048986   
52832.0   0.00057151   
52859.0   0.00063299   
52886.0   0.00053019   
52913.0   0.00049422   
52940.0   0.00068176   
52967.0   0.00066284   
52994.0   0.00061479   
53021.0   0.00071437   
53048.0   0.00062765   
53075.0   0.00078581   
53102.0   0.00093067   
53130.0   0.00079863   
53157.0   0.00085492   
53184.0   0.00090845   
53211.0   0.00092376   
53239.0   0.00088335   
53266.0   0.00092326   
53294.0   0.00098124   
53321.0   0.00093552   
53348.0   0.0010062   
53376.0   0.00097803   
53403.0   0.0010464   
53431.0   0.0012786   
53458.0   0.0012357   
53486.0   0.0012789   
53514.0   0.0013427   
53541.0   0.0012436   
53569.0   0.0013905   
53596.0   0.0014924   
53624.0   0.0013828   
53652.0   0.0015427   
53680.0   0.0017035   
53707.0   0.0017448   
53735.0   0.0018993   
53763.0   0.0017958   
53791.0   0.0017352   
53819.0   0.0019408   
53847.0   0.0019138   
53875.0   0.0019952   
53903.0   0.002188   
53931.0   0.0020042   
53959.0   0.0019421   
53987.0   0.0023052   
54015.0   0.00244   
54043.0   0.0022892   
54072.0   0.0023859   
54100.0   0.0024981   
54128.0   0.0025039   
54156.0   0.0027504   
54185.0   0.0028144   
54213.0   0.0025825   
54241.0   0.0028353   
54270.0   0.0032106   
54298.0   0.0029535   
54326.0   0.002934   
54355.0   0.0032906   
54383.0   0.0032627   
54412.0   0.0034312   
54441.0   0.003787   
54469.0   0.0036537   
54498.0   0.0036106   
54526.0   0.0039422   
54555.0   0.0040639   
54584.0   0.003955   
54613.0   0.0040968   
54641.0   0.0042754   
54670.0   0.0045113   
54699.0   0.0049853   
54728.0   0.0050055   
54757.0   0.004988   
54786.0   0.0054325   
54815.0   0.0056086   
54844.0   0.0056344   
54873.0   0.0058477   
54902.0   0.0061   
54931.0   0.0063034   
54960.0   0.0064594   
54989.0   0.0066876   
55018.0   0.0068734   
55047.0   0.007245   
55077.0   0.0078691   
55106.0   0.0082172   
55135.0   0.008452   
55164.0   0.008788   
55194.0   0.0091378   
55223.0   0.0097484   
55253.0   0.010343   
55282.0   0.010759   
55312.0   0.011303   
55341.0   0.011929   
55371.0   0.012686   
55400.0   0.013532   
55430.0   0.014307   
55459.0   0.015026   
55489.0   0.015996   
55519.0   0.017348   
55549.0   0.018384   
55578.0   0.01917   
55608.0   0.020482   
55638.0   0.021865   
55668.0   0.02315   
55698.0   0.025069   
55728.0   0.0271   
55758.0   0.02884   
55788.0   0.030782   
55818.0   0.032934   
55848.0   0.035382   
55878.0   0.038395   
55908.0   0.041502   
55938.0   0.044304   
55968.0   0.047654   
55998.0   0.051622   
56029.0   0.05559   
56059.0   0.05992   
56089.0   0.064691   
56120.0   0.069846   
56150.0   0.075092   
56180.0   0.080835   
56211.0   0.087396   
56241.0   0.093937   
56272.0   0.10091   
56302.0   0.10856   
56333.0   0.11652   
56364.0   0.12481   
56394.0   0.13353   
56425.0   0.14267   
56456.0   0.15194   
56486.0   0.16172   
56517.0   0.17174   
56548.0   0.18169   
56579.0   0.19194   
56610.0   0.20195   
56641.0   0.21167   
56672.0   0.22191   
56703.0   0.23185   
56734.0   0.2413   
56765.0   0.25129   
56796.0   0.26051   
56827.0   0.26834   
56858.0   0.27624   
56889.0   0.2842   
56921.0   0.29142   
56952.0   0.29797   
56983.0   0.30392   
57014.0   0.30947   
57046.0   0.3144   
57077.0   0.31857   
57109.0   0.32236   
57140.0   0.32544   
57172.0   0.32771   
57203.0   0.33017   
57235.0   0.33274   
57266.0   0.33534   
57298.0   0.3377   
57330.0   0.33898   
57361.0   0.34031   
57393.0   0.34127   
57425.0   0.34107   
57457.0   0.34178   
57488.0   0.34291   
57520.0   0.3431   
57552.0   0.34356   
57584.0   0.34374   
57616.0   0.34359   
57648.0   0.34345   
57680.0   0.34304   
57712.0   0.34352   
57745.0   0.34374   
57777.0   0.34311   
57809.0   0.34325   
57841.0   0.34338   
57873.0   0.34341   
57906.0   0.34392   
57938.0   0.34429   
57970.0   0.34477   
58003.0   0.34505   
58035.0   0.34506   
58068.0   0.34559   
58100.0   0.34628   
58133.0   0.34704   
58166.0   0.3483   
58198.0   0.34953   
58231.0   0.3507   
58264.0   0.3518   
58296.0   0.35265   
58329.0   0.35405   
58362.0   0.35595   
58395.0   0.35763   
58428.0   0.35935   
58461.0   0.36107   
58494.0   0.36272   
58527.0   0.36484   
58560.0   0.36717   
58593.0   0.36882   
58626.0   0.37054   
58659.0   0.37285   
58692.0   0.37476   
58725.0   0.3767   
58759.0   0.37858   
58792.0   0.37988   
58825.0   0.38188   
58859.0   0.3843   
58892.0   0.38603   
58926.0   0.38771   
58959.0   0.38942   
58993.0   0.3911   
59026.0   0.39279   
59060.0   0.39375   
59094.0   0.39446   
59127.0   0.39554   
59161.0   0.39651   
59195.0   0.39712   
59229.0   0.39765   
59262.0   0.3982   
59296.0   0.39827   
59330.0   0.39824   
59364.0   0.39803   
59398.0   0.39731   
59432.0   0.39718   
59466.0   0.39688   
59500.0   0.39601   
59535.0   0.39544   
59569.0   0.39458   
59603.0   0.39371   
59637.0   0.39302   
59672.0   0.39194   
59706.0   0.3907   
59740.0   0.38962   
59775.0   0.38818   
59809.0   0.38639   
59844.0   0.38494   
59878.0   0.38359   
59913.0   0.38191   
59948.0   0.38025   
59982.0   0.37864   
60017.0   0.37743   
60052.0   0.37673   
60086.0   0.37632   
60121.0   0.37563   
60156.0   0.37408   
60191.0   0.37285   
60226.0   0.37187   
60261.0   0.37064   
60296.0   0.37003   
60331.0   0.36939   
60366.0   0.36843   
60401.0   0.36774   
60437.0   0.36677   
60472.0   0.36565   
60507.0   0.36518   
60542.0   0.36521   
60578.0   0.36464   
60613.0   0.36325   
60649.0   0.36213   
60684.0   0.3613   
60720.0   0.36059   
60755.0   0.36061   
60791.0   0.36062   
60827.0   0.36027   
60862.0   0.35994   
60898.0   0.35946   
60934.0   0.35854   
60970.0   0.35771   
61005.0   0.35799   
61041.0   0.35814   
61077.0   0.35769   
61113.0   0.35778   
61149.0   0.35768   
61185.0   0.35752   
61221.0   0.35734   
61258.0   0.35689   
61294.0   0.35764   
61330.0   0.35873   
61366.0   0.35928   
61403.0   0.36014   
61439.0   0.36064   
61476.0   0.36099   
61512.0   0.36159   
61548.0   0.36212   
61585.0   0.3631   
61622.0   0.3641   
61658.0   0.36481   
61695.0   0.36574   
61732.0   0.36714   
61768.0   0.36869   
61805.0   0.3701   
61842.0   0.3715   
61879.0   0.37251   
61916.0   0.37367   
61953.0   0.37538   
61990.0   0.37675   
62027.0   0.37831   
62064.0   0.37997   
62101.0   0.38092   
62139.0   0.38181   
62176.0   0.38309   
62213.0   0.38436   
62250.0   0.38584   
62288.0   0.38806   
62325.0   0.39007   
62363.0   0.3916   
62400.0   0.39372   
62438.0   0.39583   
62475.0   0.39758   
62513.0   0.39954   
62551.0   0.40094   
62589.0   0.40175   
62626.0   0.40267   
62664.0   0.40402   
62702.0   0.40607   
62740.0   0.40745   
62778.0   0.40826   
62816.0   0.40979   
62854.0   0.41151   
62892.0   0.41286   
62930.0   0.41424   
62969.0   0.41523   
63007.0   0.41546   
63045.0   0.41674   
63083.0   0.41775   
63122.0   0.41806   
63160.0   0.41985   
63199.0   0.42091   
63237.0   0.4217   
63276.0   0.42339   
63315.0   0.4241   
63353.0   0.42461   
63392.0   0.42577   
63431.0   0.42689   
63470.0   0.42748   
63508.0   0.42834   
63547.0   0.42979   
63586.0   0.43106   
63625.0   0.43202   
63664.0   0.43279   
63703.0   0.43346   
63743.0   0.4344   
63782.0   0.43561   
63821.0   0.43633   
63860.0   0.43689   
63900.0   0.43771   
63939.0   0.4386   
63979.0   0.43972   
64018.0   0.44019   
64058.0   0.44094   
64097.0   0.44234   
64137.0   0.44274   
64176.0   0.4435   
64216.0   0.44459   
64256.0   0.44474   
64296.0   0.44567   
64336.0   0.44693   
64376.0   0.44742   
64416.0   0.44823   
64456.0   0.44925   
64496.0   0.44923   
64536.0   0.44903   
64576.0   0.44976   
64616.0   0.45024   
64657.0   0.45048   
64697.0   0.45069   
64737.0   0.44982   
64778.0   0.44865   
64818.0   0.44664   
64859.0   0.44364   
64899.0   0.44085   
64940.0   0.43863   
64981.0   0.43908   
65021.0   0.44248   
65062.0   0.44545   
65103.0   0.44663   
65144.0   0.44717   
65185.0   0.44669   
65226.0   0.44573   
65267.0   0.44558   
65308.0   0.44496   
65349.0   0.44362   
65390.0   0.4425   
65432.0   0.44152   
65473.0   0.44085   
65514.0   0.4398   
65556.0   0.43808   
65597.0   0.43717   
65639.0   0.4366   
65680.0   0.43524   
65722.0   0.43386   
65764.0   0.43247   
65805.0   0.43099   
65847.0   0.4303   
65889.0   0.42945   
65931.0   0.42822   
65973.0   0.4278   
66015.0   0.42742   
66057.0   0.42652   
66099.0   0.42597   
66141.0   0.426   
66183.0   0.42618   
66226.0   0.42616   
66268.0   0.42586   
66310.0   0.42577   
66353.0   0.42606   
66395.0   0.42653   
66438.0   0.42717   
66480.0   0.42778   
66523.0   0.42849   
66566.0   0.42972   
66608.0   0.4304   
66651.0   0.43082   
66694.0   0.43244   
66737.0   0.43431   
66780.0   0.43601   
66823.0   0.4378   
66866.0   0.44004   
66909.0   0.44245   
66952.0   0.44415   
66996.0   0.44609   
67039.0   0.44758   
67082.0   0.44933   
67126.0   0.45258   
67169.0   0.45582   
67213.0   0.45872   
67256.0   0.46084   
67300.0   0.4633   
67344.0   0.46641   
67387.0   0.46911   
67431.0   0.47178   
67475.0   0.47392   
67519.0   0.47662   
67563.0   0.47982   
67607.0   0.48195   
67651.0   0.48441   
67695.0   0.48744   
67740.0   0.48952   
67784.0   0.49116   
67828.0   0.49372   
67873.0   0.49647   
67917.0   0.49889   
67961.0   0.50177   
68006.0   0.50387   
68051.0   0.50518   
68095.0   0.50716   
68140.0   0.50946   
68185.0   0.5113   
68230.0   0.5135   
68275.0   0.51626   
68320.0   0.51821   
68365.0   0.51989   
68410.0   0.52212   
68455.0   0.5247   
68500.0   0.52727   
68545.0   0.52894   
68591.0   0.53039   
68636.0   0.53253   
68682.0   0.53417   
68727.0   0.53568   
68773.0   0.53791   
68818.0   0.53946   
68864.0   0.54057   
68910.0   0.54261   
68956.0   0.54479   
69001.0   0.54601   
69047.0   0.54622   
69093.0   0.54738   
69139.0   0.54923   
69186.0   0.54987   
69232.0   0.55096   
69278.0   0.55208   
69324.0   0.55195   
69371.0   0.55247   
69417.0   0.55329   
69464.0   0.55354   
69510.0   0.55434   
69557.0   0.55535   
69603.0   0.55572   
69650.0   0.55598   
69697.0   0.55687   
69744.0   0.557   
69791.0   0.55723   
69838.0   0.558   
69885.0   0.55768   
69932.0   0.55791   
69979.0   0.5586   
70026.0   0.55844   
70074.0   0.55854   
70121.0   0.55945   
70169.0   0.56059   
70216.0   0.56086   
70264.0   0.56116   
70311.0   0.56262   
70359.0   0.56326   
70407.0   0.56361   
70455.0   0.56491   
70503.0   0.56522   
70550.0   0.5661   
70598.0   0.56763   
70647.0   0.56839   
70695.0   0.5705   
70743.0   0.5729   
70791.0   0.57421   
70840.0   0.57556   
70888.0   0.57826   
70937.0   0.58177   
70985.0   0.58415   
71034.0   0.58662   
71082.0   0.58923   
71131.0   0.59089   
71180.0   0.59349   
71229.0   0.59735   
71278.0   0.60078   
71327.0   0.60313   
71376.0   0.60562   
71425.0   0.60889   
71474.0   0.61194   
71524.0   0.61462   
71573.0   0.61787   
71622.0   0.62123   
71672.0   0.62342   
71721.0   0.62637   
71771.0   0.6306   
71821.0   0.63401   
71871.0   0.638   
71920.0   0.6419   
71970.0   0.64437   
72020.0   0.64793   
72070.0   0.65103   
72120.0   0.65252   
72171.0   0.6556   
72221.0   0.65867   
72271.0   0.66066   
72322.0   0.66297   
72372.0   0.66453   
72423.0   0.66622   
72473.0   0.66874   
72524.0   0.66996   
72575.0   0.67075   
72625.0   0.67282   
72676.0   0.67461   
72727.0   0.67546   
72778.0   0.67642   
72829.0   0.6783   
72881.0   0.68078   
72932.0   0.68252   
72983.0   0.68363   
73035.0   0.68519   
73086.0   0.68655   
73138.0   0.68773   
73189.0   0.68969   
73241.0   0.69139   
73293.0   0.69263   
73345.0   0.69415   
73396.0   0.69642   
73448.0   0.69924   
73500.0   0.70157   
73553.0   0.70477   
73605.0   0.70765   
73657.0   0.70965   
73709.0   0.71392   
73762.0   0.7179   
73814.0   0.7213   
73867.0   0.72629   
73920.0   0.72967   
73972.0   0.73292   
74025.0   0.73801   
74078.0   0.74244   
74131.0   0.747   
74184.0   0.75189   
74237.0   0.75607   
74290.0   0.76144   
74344.0   0.76668   
74397.0   0.77027   
74450.0   0.77473   
74504.0   0.77974   
74557.0   0.78363   
74611.0   0.78728   
74665.0   0.79142   
74718.0   0.79608   
74772.0   0.80039   
74826.0   0.80409   
74880.0   0.80886   
74934.0   0.81263   
74989.0   0.81491   
75043.0   0.8191   
75097.0   0.82245   
75152.0   0.82442   
75206.0   0.827   
75261.0   0.82917   
75315.0   0.8317   
75370.0   0.83301   
75425.0   0.83383   
75480.0   0.83619   
75535.0   0.8371   
75590.0   0.83708   
75645.0   0.83756   
75700.0   0.83847   
75755.0   0.84024   
75811.0   0.84083   
75866.0   0.84077   
75922.0   0.84134   
75977.0   0.84198   
76033.0   0.84362   
76089.0   0.84463   
76145.0   0.84507   
76201.0   0.84648   
76257.0   0.84757   
76313.0   0.84863   
76369.0   0.84986   
76425.0   0.85176   
76482.0   0.85389   
76538.0   0.85472   
76595.0   0.85626   
76651.0   0.85828   
76708.0   0.85973   
76765.0   0.86134   
76822.0   0.8635   
76879.0   0.86618   
76936.0   0.8684   
76993.0   0.87048   
77050.0   0.87161   
77107.0   0.87348   
77165.0   0.87692   
77222.0   0.87907   
77280.0   0.8812   
77337.0   0.88316   
77395.0   0.88535   
77453.0   0.88902   
77511.0   0.89102   
77569.0   0.8927   
77627.0   0.89524   
77685.0   0.89792   
77743.0   0.90095   
77801.0   0.90211   
77860.0   0.90342   
77918.0   0.90649   
77977.0   0.90989   
78035.0   0.9136   
78094.0   0.9161   
78153.0   0.91855   
78212.0   0.92167   
78271.0   0.92318   
78330.0   0.92538   
78389.0   0.92863   
78449.0   0.93141   
78508.0   0.93411   
78568.0   0.93647   
78627.0   0.9397   
78687.0   0.94341   
78747.0   0.94646   
78806.0   0.94957   
78866.0   0.95267   
78926.0   0.95636   
78986.0   0.95924   
79047.0   0.96143   
79107.0   0.96484   
79167.0   0.96859   
79228.0   0.9731   
79288.0   0.97621   
79349.0   0.97814   
79410.0   0.98173   
79471.0   0.9846   
79532.0   0.98684   
79593.0   0.98857   
79654.0   0.99115   
79715.0   0.99466   
79776.0   0.99569   
79838.0   0.99814   
79899.0   1.0   
79961.0   0.99875   
80023.0   0.99985   
80084.0   0.99802   
80146.0   0.99395   
80208.0   0.99392   
80270.0   0.99207   
80332.0   0.9873   
80395.0   0.98417   
80457.0   0.98144   
80520.0   0.97807   
80582.0   0.97383   
80645.0   0.97016   
80708.0   0.96631   
80770.0   0.96174   
80833.0   0.95887   
80896.0   0.95571   
80960.0   0.95177   
81023.0   0.94851   
81086.0   0.94539   
81150.0   0.94283   
81213.0   0.94041   
81277.0   0.93816   
81341.0   0.93635   
81404.0   0.93545   
81468.0   0.93456   
81532.0   0.93326   
81597.0   0.93387   
81661.0   0.93545   
81725.0   0.93617   
81790.0   0.93693   
81854.0   0.93683   
81919.0   0.93705   
81984.0   0.93901   
82048.0   0.93947   
82113.0   0.93978   
82178.0   0.94101   
82244.0   0.93908   
82309.0   0.9366   
82374.0   0.93529   
82440.0   0.93233   
82505.0   0.92716   
82571.0   0.92033   
82637.0   0.91221   
82703.0   0.90162   
82769.0   0.88895   
82835.0   0.87444   
82901.0   0.85765   
82967.0   0.83933   
83034.0   0.81811   
83100.0   0.7953   
83167.0   0.77005   
83234.0   0.74126   
83301.0   0.71258   
83368.0   0.68253   
83435.0   0.65119   
83502.0   0.6194   
83569.0   0.58639   
83636.0   0.55413   
83704.0   0.52127   
83772.0   0.48871   
83839.0   0.45847   
83907.0   0.42805   
83975.0   0.39788   
84043.0   0.37017   
84111.0   0.34315   
84180.0   0.31611   
84248.0   0.29253   
84316.0   0.2708   
84385.0   0.24862   
84454.0   0.22851   
84523.0   0.20974   
84592.0   0.19209   
84661.0   0.17592   
84730.0   0.1611   
84799.0   0.14795   
84868.0   0.13545   
84938.0   0.12435   
85008.0   0.11365   
85077.0   0.10419   
85147.0   0.096232   
85217.0   0.087474   
85287.0   0.080804   
85357.0   0.074939   
85428.0   0.068051   
85498.0   0.062178   
85569.0   0.056616   
85639.0   0.052454   
85710.0   0.048412   
85781.0   0.043909   
85852.0   0.041439   
85923.0   0.038305   
85994.0   0.033882   
86066.0   0.032301   
86137.0   0.031018   
86209.0   0.027138   
86281.0   0.025678   
86352.0   0.025367   
86424.0   0.021932   
86496.0   0.019329   
86569.0   0.018933   
86641.0   0.018113   
86713.0   0.017118   
86786.0   0.016158   
86859.0   0.014925   
86931.0   0.014291   
87004.0   0.013533   
87077.0   0.012684   
87151.0   0.011646   
87224.0   0.0097655   
87297.0   0.010153   
87371.0   0.010797   
87444.0   0.0097384   
87518.0   0.0096852   
87592.0   0.0080494   
87666.0   0.0065016   
87740.0   0.0074361   
87815.0   0.0068605   
87889.0   0.0067221   
87964.0   0.0073235   
88038.0   0.0054988   
88113.0   0.0049141   
88188.0   0.0059404   
88263.0   0.0055356   
88338.0   0.0053065   
88414.0   0.0051972   
88489.0   0.0046957   
88565.0   0.0048639   
88640.0   0.0043953   
88716.0   0.0031833   
88792.0   0.0030237   
88868.0   0.0027349   
88944.0   0.0023262   
89021.0   0.0036151   
89097.0   0.004129   
89174.0   0.0028806   
89251.0   0.001723   
89327.0   0.0016094   
89404.0   0.0025709   
89482.0   0.0031917   
89559.0   0.0029971   
89636.0   0.0019333   
89714.0   0.0021494   
89791.0   0.0030712   
89869.0   0.00249   
89947.0   0.0030165   
90025.0   0.0030381   
90104.0   0.0013025   
90182.0   0.00049151   
90260.0   0.0010149   
90339.0   0.0015371   
90418.0   0.0017179   
90497.0   0.0017351   
90576.0   0.0025347   
90655.0   0.0017907   
90734.0   0.00098211   
90814.0   0.0015405   
90893.0   0.0020048   
90973.0   0.0018611   
91053.0   0.0017311   
91133.0   0.0018621   
91213.0   0.0011629   
91293.0   0.00095226   
91374.0   0.0014194   
91454.0   0.00076315   
91535.0   0.00059414   
91616.0   0.00027022   
91697.0   0.0   
91778.0   0.00038337   
91859.0   0.00087804   
91941.0   0.0015117   
92022.0   0.00048232   
92104.0   0.0   
92186.0   0.00014843   
92268.0   0.0018968   
92350.0   0.002226   
92432.0   0.00072398   
92515.0   0.00015595   
92597.0   0.001336   
92680.0   0.0017666   
92763.0   0.0005475   
92846.0   0.00054463   
92929.0   0.00074716   
93013.0   0.00022653   
93096.0   0.0005505   
93180.0   0.0017038   
93264.0   0.00072205   
93348.0   0.0010369   
93432.0   0.00095533   
93516.0   0.0003995   
93600.0   0.00035038   
93685.0   0.00080696   
93770.0   0.00071273   
93854.0   9.7687e-05   
93939.0   0.00078263   
94025.0   0.0012905   
94110.0   3.1629e-05   
94195.0   0.00086989   
94281.0   0.0011283   
94367.0   0.0011953   
94453.0   0.00072091   
94539.0   0.0012515   
94625.0   0.00046476   
94712.0   0.00098223   
94798.0   0.00065163   
94885.0   0.00045605   
94972.0   0.0010582   
95059.0   0.00051365   
95146.0   0.00059036   
95233.0   0.0   
95321.0   0.00011975   
95409.0   0.00045931   
95496.0   0.00019538   
95584.0   0.0016138   
95673.0   0.0018072   
95761.0   0.0001762   
95850.0   0.00065671   
95938.0   0.0011173   
96027.0   0.0011982   
96116.0   0.00096366   
96205.0   0.0   
96294.0   0.0011445   
96384.0   0.00043016   
96474.0   0.0   
96563.0   0.00097005   
96653.0   0.0013885   
96744.0   0.00067381   
96834.0   0.00015572   
96924.0   0.0   
97015.0   0.0014438   
97106.0   0.0029202   
97197.0   0.00029087   
97288.0   0.00068048   
97380.0   0.0014578   
97471.0   0.00065843   
97563.0   0.0   
97655.0   0.00016942   
97747.0   0.00028386   
97839.0   0.0010007   
97931.0   0.00095986   
98024.0   0.0012145   
98117.0   0.00084466   
98209.0   0.00083066   
98303.0   0.0   
98396.0   0.0012073   
98489.0   0.00096043   
98583.0   3.0351e-05   
98677.0   0.00043483   
98771.0   1.5212e-06   
98865.0   0.00084774   
98959.0   0.0010064   
99054.0   0.00085655   
99148.0   0.00051199   
99243.0   0.001194   
99338.0   0.0005944   
99434.0   0.0002881   
99529.0   0.0015652   
99625.0   0.00098392   
99720.0   0.00072998   
99816.0   0.0011177   
99913.0   0.00083931   
100009.0   0.00096213   
100105.0   0.0   
100202.0   0.00029201   
100299.0   0.0014951   
100396.0   0.00078065   
100493.0   0.00026313   
100591.0   0.0   
100689.0   0.0   
100786.0   0.00086676   
100884.0   0.00053389   
100983.0   0.0   
101081.0   0.0002721   
101180.0   0.0012328   
101278.0   0.0013055   
101377.0   0.0012129   
101477.0   0.0011548   
101576.0   0.00061043   
101676.0   0.00077215   
101775.0   0.00096685   
101875.0   0.00019907   
101976.0   0.00068242   
102076.0   0.00082599   
102177.0   0.00010329   
102277.0   0.0010797   
102378.0   0.00066019   
102479.0   0.0011278   
102581.0   0.00087475   
102682.0   0.00059808   
102784.0   9.0239e-05   
102886.0   0.00080464   
102988.0   0.0012934   
103091.0   0.0010925   
103193.0   0.00080336   
103296.0   0.0   
103399.0   0.0010597   
103502.0   0.00049668   
103606.0   9.1399e-05   
103709.0   0.0009925   
103813.0   0.00095881   
103917.0   0.0   
104021.0   0.0003488   
104126.0   7.3212e-05   
104230.0   0.00080455   
104335.0   0.00039637   
104440.0   0.00071119   
104546.0   0.0   
104651.0   0.00055165   
104757.0   0.0014536   
104863.0   0.00026258   
104969.0   0.0011337   
105075.0   0.00068491   
105182.0   0.00085357   
105289.0   0.00038036   
105396.0   0.00050444   
105503.0   0.0005489   
105610.0   0.0011312   
105718.0   0.00076554   
105826.0   0.0   
105934.0   0.00019909   
106042.0   0.0018593   
106151.0   0.0013466   
106259.0   0.0   
106368.0   0.00049325   
106478.0   0.0013578   
106587.0   0.00073661   
106697.0   0.0010257   
106807.0   2.4221e-05   
106917.0   0.0   
107027.0   0.00098656   
107138.0   0.0013094   
107248.0   0.00067578   
107359.0   0.00043123   
107471.0   0.0010992   
107582.0   0.00084306   
107694.0   0.00095969   
107806.0   0.0023919   
107918.0   0.0017902   
108030.0   0.00038028   
108143.0   0.00070925   
108256.0   0.00010523   
108369.0   0.0   
108482.0   0.00064647   
108596.0   0.0014391   
108710.0   0.0011743   
108824.0   0.0010432   
108938.0   0.00045725   
109053.0   0.00025653   
109168.0   0.0013258   
109283.0   0.00044753   
109398.0   0.00027256   
109513.0   0.0   
109629.0   0.00052892   
109745.0   0.0021671   
109861.0   0.0015599   
109978.0   0.00074502   
110095.0   0.0016357   
110212.0   0.0017781   
110329.0   0.00072361   
110446.0   9.1427e-05   
110564.0   0.0018401   
110682.0   0.0012689   
110800.0   0.00055083   
110919.0   0.0012085   
111038.0   0.0   
111157.0   0.00068959   
111276.0   0.0021805   
111395.0   0.001832   
111515.0   0.0013461   
111635.0   0.0011151   
111756.0   0.0   
111876.0   0.0012945   
111997.0   0.0011947   
112118.0   0.0   
112239.0   0.00055357   
112361.0   0.00096724   
112483.0   0.00081848   
112605.0   0.0010644   
112727.0   0.0016812   
112850.0   0.0013039   
112973.0   0.000572   
113096.0   0.00094657   
113220.0   0.0015873   
113343.0   0.00089154   
113467.0   0.0012828   
113592.0   2.597e-05   
113716.0   0.00065101   
113841.0   0.0016816   
113966.0   0.0012532   
114092.0   0.0006888   
114217.0   0.00044119   
114343.0   0.00034586   
114469.0   0.00051477   
114596.0   0.0023243   
114723.0   0.0017278   
114850.0   0.00052615   
114977.0   0.00088662   
115105.0   0.00045822   
115232.0   0.00090341   
115361.0   0.00073807   
115489.0   0.0023267   
115618.0   0.0   
115747.0   0.0011002   
115876.0   0.0   
116006.0   0.0010645   
116136.0   0.00057776   
116266.0   0.0   
116396.0   0.0018028   
116527.0   0.0017638   
116658.0   0.001258   
116790.0   0.00047046   
116921.0   0.0015042   
117053.0   0.0006213   
117186.0   0.0   
117318.0   0.0013092   
117451.0   0.0   
117584.0   0.0   
117718.0   0.0012611   
117851.0   0.00076786   
117985.0   0.00027181   
118120.0   0.0010402   
118254.0   0.0017502   
118389.0   0.0   
118525.0   0.00073639   
118660.0   0.0014304   
118796.0   0.00086449   
118933.0   0.0   
119069.0   0.00025319   
119206.0   0.0015428   
119343.0   0.00044352   
119481.0   0.0007879   
119618.0   0.0010123   
119757.0   0.0011507   
119895.0   0.00087145   
120034.0   0.00091226   
120173.0   0.0   
120312.0   0.00086529   
120452.0   0.00089558   
120592.0   0.00061362   
120732.0   0.00014841   
120873.0   0.00084489   
121014.0   0.00092571   
121156.0   0.0014276   
121297.0   0.0014951   
121439.0   0.00022691   
121582.0   0.0010308   
121724.0   0.0013355   
121867.0   0.0010825   
122011.0   0.0012186   
122155.0   0.00055437   
122299.0   0.00071507   
122443.0   0.0006632   
122588.0   0.0010033   
122733.0   0.00023185   
122878.0   0.00061397   
123024.0   0.0   
123170.0   0.0013449   
123317.0   0.0010713   
123463.0   0.0013472   
123610.0   8.3597e-05   
123758.0   0.0021111   
123906.0   0.0016584   
124054.0   0.0   
124203.0   0.0010477   
124352.0   0.000377   
124501.0   0.0   
124650.0   0.001806   
124800.0   0.0015262   
124951.0   0.0017931   
125102.0   0.0   
125253.0   0.0   
125404.0   0.0012266   
125556.0   0.0012323   
125708.0   0.00079065   
125861.0   0.0011755   
126014.0   0.00092707   
126167.0   0.0   
126321.0   0.00064363   
126475.0   0.00080503   
126629.0   0.00081661   
126784.0   0.0018184   
126939.0   0.0016094   
127095.0   0.00099629   
127251.0   0.0014924   
127407.0   0.0018216   
127564.0   0.00080151   
127721.0   0.00060509   
127878.0   0.00066673   
128036.0   0.0014335   
128194.0   0.0010018   
128353.0   0.0   
128512.0   0.0005712   
128671.0   0.00038366   
128831.0   0.0013291   
128992.0   0.0010785   
129152.0   0.00053079   
129313.0   0.001162   
129475.0   0.0010352   
129636.0   3.2117e-05   
129799.0   0.00058801   
129961.0   0.00085514   
130124.0   0.0   
130288.0   0.00044022   
130452.0   0.00012057   
130616.0   0.0004521   
130781.0   0.0   
130946.0   5.4875e-05   
131111.0   0.000576   
131277.0   0.0   
131444.0   0.00025052   
131611.0   0.00034448   
131778.0   0.00027547   
131946.0   0.00092309   
132114.0   0.00058528   
132282.0   0.00017341   
132451.0   0.00073003   
132620.0   0.00095111   
132790.0   0.0012185   
132960.0   6.8253e-05   
133131.0   0.00024328   
133302.0   0.00039434   
133474.0   0.00032558   
133646.0   0.00047937   
133818.0   0.00040153   
133991.0   0.0   
134165.0   0.00011172   
134338.0   0.0010836   
134513.0   0.00027755   
134687.0   0.00070961   
134862.0   0.00028903   
135038.0   0.00041075   
135214.0   0.00045068   
135391.0   0.00025904   
135568.0   1.3974e-05   
135745.0   0.00069283   
135923.0   0.00090183   
136101.0   0.00023003   
136280.0   0.00022462   
136459.0   0.00015174   
136639.0   0.00026035   
136819.0   0.00031576   
137000.0   0.00099716   
137181.0   0.0011803   
137363.0   0.0012558   
137545.0   0.00091015   
137728.0   0.00049178   
137911.0   0.00078531   
138095.0   0.00051694   
138279.0   0.00011493   
138464.0   0.0013082   
138649.0   0.0011264   
138834.0   0.0005166   
139020.0   0.0011929   
139207.0   0.0014932   
139394.0   0.00085282   
139582.0   0.00064191   
139770.0   0.00064257   
139958.0   0.00078674   
140148.0   0.0009735   
140337.0   0.00025238   
140527.0   0.0   
140718.0   0.00026747   
140909.0   0.00079097   
141101.0   0.00092777   
141293.0   0.00058458   
141486.0   0.0009815   
141679.0   0.00089421   
141873.0   0.0   
142067.0   0.00023473   
142262.0   0.00072689   
142458.0   0.00016925   
142654.0   0.00070452   
142850.0   0.00070363   
143047.0   0.0015898   
143245.0   0.00071771   
143443.0   0.00080678   
143642.0   0.00026217   
143841.0   0.00048611   
144041.0   0.00077706   
144241.0   0.0   
144442.0   0.00042395   
144643.0   0.0011816   
144845.0   0.00032494   
145048.0   0.00030248   
145251.0   0.0011787   
145455.0   1.2419e-05   
145659.0   0.00071993   
145864.0   0.00023354   
146069.0   0.0010738   
146275.0   0.00046764   
146482.0   0.00021204   
146689.0   0.00078618   
146897.0   0.00069211   
147105.0   0.00014776   
147314.0   0.00063419   
147524.0   0.001011   
147734.0   0.00028936   
147945.0   0.00044735   
148156.0   0.00057117   
148368.0   0.00016428   
148580.0   0.00076878   
148794.0   0.00097155   
149007.0   5.9291e-05   
149222.0   0.0011922   
149437.0   0.0011835   
149653.0   0.00048733   
149869.0   0.00073653   
150086.0   0.00085954   
150303.0   0.0011277   
150521.0   0.00065761   
150740.0   0.00035994   
150960.0   0.00066413   
151180.0   0.000486   
151400.0   0.00055938   
151622.0   0.00093434   
151844.0   0.0010479   
152066.0   0.00056522   
152290.0   0.0   
152514.0   0.00046446   
152738.0   0.00058361   
152963.0   0.00065512   
153189.0   0.00077385   
153416.0   0.0006196   
153643.0   0.00035705   
153871.0   0.00028254   
154100.0   0.00036178   
154329.0   0.00058724   
154559.0   0.00053421   
154790.0   0.0007715   
155021.0   0.00094144   
155253.0   0.0010307   
155486.0   0.00072877   
155719.0   0.00074634   
155954.0   0.00088218   
156189.0   0.0004688   
156424.0   0.0   
156660.0   0.0010147   
156897.0   0.00032905   
157135.0   0.00043928   
157374.0   0.00088139   
157613.0   0.00059913   
157853.0   0.00043568   
158093.0   0.00056434   
158335.0   0.00096235   
158577.0   0.0011991   
158820.0   9.7614e-05   
159063.0   0.00085769   
159307.0   0.0   
159553.0   0.00039608   
159798.0   0.0010144   
160045.0   0.00077904   
160292.0   0.0010498   
160541.0   0.0   
160789.0   0.00044346   
161039.0   0.00057234   
161290.0   0.00055283   
161541.0   0.0   
161793.0   0.000941   
162046.0   0.0017569   
162299.0   0.00071419   
162554.0   0.0009258   
162809.0   0.0008331   
163065.0   0.00042417   
163322.0   0.00065731   
163579.0   0.00098304   
163838.0   0.0010772   
164097.0   0.00051907   
164357.0   0.00080859   
164618.0   0.00058493   
164879.0   0.00054406   
165142.0   0.0021885   
165405.0   0.001558   
165670.0   0.0001359   
165935.0   0.0023241   
166201.0   0.0022747   
166467.0   0.0   
166735.0   0.0   
167004.0   0.0013416   
167273.0   0.0013247   
167543.0   2.3276e-05   
167814.0   0.00098711   
168086.0   0.00081522   
168359.0   0.0010126   
168633.0   0.0010331   
168907.0   0.00018321   
169183.0   0.00045003   
169459.0   0.00022541   
169737.0   0.00078757   
170015.0   0.00042363   
170294.0   0.00088292   
170574.0   0.0017492   
170855.0   0.000948   
171137.0   0.00030549   
171420.0   0.0012664   
171704.0   0.0017387   
171989.0   0.0012146   
172274.0   0.00030319   
172561.0   0.00058656   
172849.0   0.00051724   
173137.0   0.00035284   
173427.0   0.00071381   
173717.0   0.00019427   
174009.0   0.00024601   
174301.0   0.00071924   
174595.0   0.00034899   
174889.0   0.00055635   
175184.0   0.00029989   
175481.0   0.0012587   
175778.0   0.00034372   
176077.0   0.00044456   
176376.0   0.00013365   
176677.0   0.00026362   
176978.0   0.00044386   
177281.0   0.00093079   
177584.0   0.00047646   
177889.0   0.00073072   
178194.0   0.0010366   
178501.0   0.00088193   
178809.0   6.7877e-05   
179118.0   0.0   
179428.0   0.00079812   
179739.0   0.00091338   
180051.0   0.00091704   
180364.0   0.0029065   
180678.0   0.0081893   
180993.0   0.014257   
181310.0   0.020599   
181627.0   0.02701   
181946.0   0.032913   
182266.0   0.038678   
182587.0   0.040889   
182909.0   0.043704   
183232.0   0.044992   
183556.0   0.036224   
183882.0   0.02479   
184208.0   0.017261   
184536.0   0.012494   
184865.0   0.0096254   
185195.0   0.0070331   
185526.0   0.0046   
185859.0   0.0027033   
186192.0   0.0017632   
186527.0   0.0017683   
186863.0   0.00096078   
187201.0   0.00023921   
187539.0   0.00052208   
187879.0   0.00062994   
188220.0   0.00044926   
188562.0   0.00051596   
188906.0   0.00068904   
189250.0   5.4582e-05   
189596.0   0.0   
189944.0   0.00025528   
190292.0   0.00032429   
190642.0   0.0   
190993.0   0.00018388   
191345.0   0.00021591   
191699.0   0.00018124   
192054.0   0.00028472   
192410.0   0.0   
192768.0   0.00027413   
193127.0   0.00070567   
193487.0   0.00054093   
193849.0   0.00020443   
194212.0   0.00018245   
194576.0   0.0006433   
194942.0   8.3312e-05   
195309.0   0.0002967   
195678.0   0.00037303   
196048.0   0.00038674   
196419.0   4.6449e-05   
196792.0   0.00029421   
197166.0   0.0004716   
197541.0   0.00073818   
197918.0   0.0004473   
198297.0   0.0   
198677.0   0.00016658   
199058.0   2.6146e-05   
199441.0   8.7371e-07   
199825.0   0.00031881   
200000.0   0.0   
