#| Wavelength | Effective_Area |
     1200.000   0.000000000000 
     1201.000   0.000000000000 
     1202.000   0.000000000000 
     1203.000   0.000000000000 
     1204.000   0.000000000000 
     1205.000   0.000000000000 
     1206.000   0.000000000000 
     1207.000   0.000000000000 
     1208.000   0.000000000000 
     1209.000   0.000000000000 
     1210.000   0.000000000000 
     1211.000   0.000000000000 
     1212.000   0.000000000000 
     1213.000   0.000000000000 
     1214.000   0.000000000000 
     1215.000   0.000000000000 
     1216.000   0.000000000000 
     1217.000   0.000000000000 
     1218.000   0.000000000000 
     1219.000   0.000000000000 
     1220.000   0.000000000000 
     1221.000   0.000000000000 
     1222.000   0.000000000000 
     1223.000   0.000000000000 
     1224.000   0.000000000000 
     1225.000   0.000000000000 
     1226.000   0.000000000000 
     1227.000   0.000000000000 
     1228.000   0.000000000000 
     1229.000   0.000000000000 
     1230.000   0.000000000000 
     1231.000   0.000000000000 
     1232.000   0.000000000000 
     1233.000   0.000000000000 
     1234.000   0.000000000000 
     1235.000   0.000000000000 
     1236.000   0.000000000000 
     1237.000   0.000000000000 
     1238.000   0.000000000000 
     1239.000   0.000000000000 
     1240.000   0.000000000000 
     1241.000   0.000000000000 
     1242.000   0.000000000000 
     1243.000   0.000000000000 
     1244.000   0.000000000000 
     1245.000   0.000000000000 
     1246.000   0.000000000000 
     1247.000   0.000000000000 
     1248.000   0.000000000000 
     1249.000   0.000000000000 
     1250.000   0.000000000000 
     1251.000   0.000000000000 
     1252.000   0.000000000000 
     1253.000   0.000000000000 
     1254.000   0.000000000000 
     1255.000   0.000000000000 
     1256.000   0.000000000000 
     1257.000   0.000000000000 
     1258.000   0.000000000000 
     1259.000   0.000000000000 
     1260.000   0.000000000000 
     1261.000   0.000000000000 
     1262.000   0.000000000000 
     1263.000   0.000000000000 
     1264.000   0.000000000000 
     1265.000   0.000000000000 
     1266.000   0.000000000000 
     1267.000   0.000000000000 
     1268.000   0.000000000000 
     1269.000   0.000000000000 
     1270.000   0.000000000000 
     1271.000   0.000000000000 
     1272.000   0.000000000000 
     1273.000   0.000000000000 
     1274.000   0.000000000000 
     1275.000   0.000000000000 
     1276.000   0.000000000000 
     1277.000   0.000000000000 
     1278.000   0.000000000000 
     1279.000   0.000000000000 
     1280.000   0.000000000000 
     1281.000   0.000000000000 
     1282.000   0.000000000000 
     1283.000   0.000000000000 
     1284.000   0.000000000000 
     1285.000   0.000000000000 
     1286.000   0.000000000000 
     1287.000   0.000000000000 
     1288.000   0.000000000000 
     1289.000   0.000000000000 
     1290.000   0.000000000000 
     1291.000   0.000000000000 
     1292.000   0.000000000000 
     1293.000   0.000000000000 
     1294.000   0.000000000000 
     1295.000   0.000000000000 
     1296.000   0.000000000000 
     1297.000   0.000000000000 
     1298.000   0.000000000000 
     1299.000   0.000000000000 
     1300.000   0.000000000000 
     1301.000   0.000000000000 
     1302.000   0.000000000000 
     1303.000   0.000000000000 
     1304.000   0.000000000000 
     1305.000   0.000000000000 
     1306.000   0.000000000000 
     1307.000   0.000000000000 
     1308.000   0.000000000000 
     1309.000   0.000000000000 
     1310.000   0.000000000000 
     1311.000   0.000000000000 
     1312.000   0.000000000000 
     1313.000   0.000000000000 
     1314.000   0.000000000000 
     1315.000   0.000000000000 
     1316.000   0.000000000000 
     1317.000   0.000000000000 
     1318.000   0.000000000000 
     1319.000   0.000000000000 
     1320.000   0.000000000000 
     1321.000   0.000000000000 
     1322.000   0.000000000000 
     1323.000   0.000000000000 
     1324.000   0.000000000000 
     1325.000   0.000000000000 
     1326.000   0.000000000000 
     1327.000   0.000000000000 
     1328.000   0.000000000000 
     1329.000   0.000000000000 
     1330.000   0.000000000000 
     1331.000   0.000000000000 
     1332.000   0.000000000000 
     1333.000   0.000000000000 
     1334.000   0.000000000000 
     1335.000   0.000000000000 
     1336.000   0.000000000000 
     1337.000   0.000000000000 
     1338.000   0.000000000000 
     1339.000   0.000000000000 
     1340.000   0.000000000000 
     1341.000   0.000000000000 
     1342.000   0.000000000000 
     1343.000   0.000000000000 
     1344.000   0.000000000000 
     1345.000   0.000000000000 
     1346.000   0.000000000000 
     1347.000   0.000000000000 
     1348.000   0.000000000000 
     1349.000   0.000000000000 
     1350.000   0.000000000000 
     1351.000   0.000000000000 
     1352.000   0.000000000000 
     1353.000   0.000000000000 
     1354.000   0.000000000000 
     1355.000   0.000000000000 
     1356.000   0.000000000000 
     1357.000   0.000000000000 
     1358.000   0.000000000000 
     1359.000   0.000000000000 
     1360.000   0.000000000000 
     1361.000   0.000000000000 
     1362.000   0.000000000000 
     1363.000   0.000000000000 
     1364.000   0.000000000000 
     1365.000   0.000000000000 
     1366.000   0.000000000000 
     1367.000   0.000000000000 
     1368.000   0.000000000000 
     1369.000   0.000000000000 
     1370.000   0.000000000000 
     1371.000   0.000000000000 
     1372.000   0.000000000000 
     1373.000   0.000000000000 
     1374.000   0.000000000000 
     1375.000   0.000000000000 
     1376.000   0.000000000000 
     1377.000   0.000000000000 
     1378.000   0.000000000000 
     1379.000   0.000000000000 
     1380.000   0.000000000000 
     1381.000   0.000000000000 
     1382.000   0.000000000000 
     1383.000   0.000000000000 
     1384.000   0.000000000000 
     1385.000   0.000000000000 
     1386.000   0.000000000000 
     1387.000   0.000000000000 
     1388.000   0.000000000000 
     1389.000   0.000000000000 
     1390.000   0.000000000000 
     1391.000   0.000000000000 
     1392.000   0.000000000000 
     1393.000   0.000000000000 
     1394.000   0.000000000000 
     1395.000   0.000000000000 
     1396.000   0.000000000000 
     1397.000   0.000000000000 
     1398.000   0.000000000000 
     1399.000   0.000000000000 
     1400.000   0.000000000000 
     1401.000   0.000000000000 
     1402.000   0.000000000000 
     1403.000   0.000000000000 
     1404.000   0.000000000000 
     1405.000   0.000000000000 
     1406.000   0.000000000000 
     1407.000   0.000000000000 
     1408.000   0.000000000000 
     1409.000   0.000000000000 
     1410.000   0.000000000000 
     1411.000   0.000000000000 
     1412.000   0.000000000000 
     1413.000   0.000000000000 
     1414.000   0.000000000000 
     1415.000   0.000000000000 
     1416.000   0.000000000000 
     1417.000   0.000000000000 
     1418.000   0.000000000000 
     1419.000   0.000000000000 
     1420.000   0.000000000000 
     1421.000   0.000000000000 
     1422.000   0.000000000000 
     1423.000   0.000000000000 
     1424.000   0.000000000000 
     1425.000   0.000000000000 
     1426.000   0.000000000000 
     1427.000   0.000000000000 
     1428.000   0.000000000000 
     1429.000   0.000000000000 
     1430.000   0.000000000000 
     1431.000   0.000000000000 
     1432.000   0.000000000000 
     1433.000   0.000000000000 
     1434.000   0.000000000000 
     1435.000   0.000000000000 
     1436.000   0.000000000000 
     1437.000   0.000000000000 
     1438.000   0.000000000000 
     1439.000   0.000000000000 
     1440.000   0.000000000000 
     1441.000   0.000000000000 
     1442.000   0.000000000000 
     1443.000   0.000000000000 
     1444.000   0.000000000000 
     1445.000   0.000000000000 
     1446.000   0.000000000000 
     1447.000   0.000000000000 
     1448.000   0.000000000000 
     1449.000   0.000000000000 
     1450.000   0.000000000000 
     1451.000   0.000000000000 
     1452.000   0.000000000000 
     1453.000   0.000000000000 
     1454.000   0.000000000000 
     1455.000   0.000000000000 
     1456.000   0.000000000000 
     1457.000   0.000000000000 
     1458.000   0.000000000000 
     1459.000   0.000000000000 
     1460.000   0.000000000000 
     1461.000   0.000000000000 
     1462.000   0.000000000000 
     1463.000   0.000000000000 
     1464.000   0.000000000000 
     1465.000   0.000000000000 
     1466.000   0.000000000000 
     1467.000   0.000000000000 
     1468.000   0.000000000000 
     1469.000   0.000000000000 
     1470.000   0.000000000000 
     1471.000   0.000000000000 
     1472.000   0.000000000000 
     1473.000   0.000000000000 
     1474.000   0.000000000000 
     1475.000   0.000000000000 
     1476.000   0.000000000000 
     1477.000   0.000000000000 
     1478.000   0.000000000000 
     1479.000   0.000000000000 
     1480.000   0.000000000000 
     1481.000   0.000000000000 
     1482.000   0.000000000000 
     1483.000   0.000000000000 
     1484.000   0.000000000000 
     1485.000   0.000000000000 
     1486.000   0.000000000000 
     1487.000   0.000000000000 
     1488.000   0.000000000000 
     1489.000   0.000000000000 
     1490.000   0.000000000000 
     1491.000   0.000000000000 
     1492.000   0.000000000000 
     1493.000   0.000000000000 
     1494.000   0.000000000000 
     1495.000   0.000000000000 
     1496.000   0.000000000000 
     1497.000   0.000000000000 
     1498.000   0.000000000000 
     1499.000   0.000000000000 
     1500.000   0.000000000000 
     1501.000   0.000000000000 
     1502.000   0.000000000000 
     1503.000   0.000000000000 
     1504.000   0.000000000000 
     1505.000   0.000000000000 
     1506.000   0.000000000000 
     1507.000   0.000000000000 
     1508.000   0.000000000000 
     1509.000   0.000000000000 
     1510.000   0.000000000000 
     1511.000   0.000000000000 
     1512.000   0.000000000000 
     1513.000   0.000000000000 
     1514.000   0.000000000000 
     1515.000   0.000000000000 
     1516.000   0.000000000000 
     1517.000   0.000000000000 
     1518.000   0.000000000000 
     1519.000   0.000000000000 
     1520.000   0.000000000000 
     1521.000   0.000000000000 
     1522.000   0.000000000000 
     1523.000   0.000000000000 
     1524.000   0.000000000000 
     1525.000   0.000000000000 
     1526.000   0.000000000000 
     1527.000   0.000000000000 
     1528.000   0.000000000000 
     1529.000   0.000000000000 
     1530.000   0.000000000000 
     1531.000   0.000000000000 
     1532.000   0.000000000000 
     1533.000   0.000000000000 
     1534.000   0.000000000000 
     1535.000   0.000000000000 
     1536.000   0.000000000000 
     1537.000   0.000000000000 
     1538.000   0.000000000000 
     1539.000   0.000000000000 
     1540.000   0.000000000000 
     1541.000   0.000000000000 
     1542.000   0.000000000000 
     1543.000   0.000000000000 
     1544.000   0.000000000000 
     1545.000   0.000000000000 
     1546.000   0.000000000000 
     1547.000   0.000000000000 
     1548.000   0.000000000000 
     1549.000   0.000000000000 
     1550.000   0.000000000000 
     1551.000   0.000000000000 
     1552.000   0.000000000000 
     1553.000   0.000000000000 
     1554.000   0.000000000000 
     1555.000   0.000000000000 
     1556.000   0.000000000000 
     1557.000   0.000000000000 
     1558.000   0.000000000000 
     1559.000   0.000000000000 
     1560.000   0.000000000000 
     1561.000   0.000000000000 
     1562.000   0.000000000000 
     1563.000   0.000000000000 
     1564.000   0.000000000000 
     1565.000   0.000000000000 
     1566.000   0.000000000000 
     1567.000   0.000000000000 
     1568.000   0.000000000000 
     1569.000   0.000000000000 
     1570.000   0.000000000000 
     1571.000   0.000000000000 
     1572.000   0.000000000000 
     1573.000   0.000000000000 
     1574.000   0.000000000000 
     1575.000   0.000000000000 
     1576.000   0.000000000000 
     1577.000   0.000000000000 
     1578.000   0.000000000000 
     1579.000   0.000000000000 
     1580.000   0.000000000000 
     1581.000   0.000000000000 
     1582.000   0.000000000000 
     1583.000   0.000000000000 
     1584.000   0.000000000000 
     1585.000   0.000000000000 
     1586.000   0.000000000000 
     1587.000   0.000000000000 
     1588.000   0.000000000000 
     1589.000   0.000000000000 
     1590.000   0.000000000000 
     1591.000   0.000000000000 
     1592.000   0.000000000000 
     1593.000   0.000000000000 
     1594.000   0.000000000000 
     1595.000   0.000000000000 
     1596.000   0.000000000000 
     1597.000   0.000000000000 
     1598.000   0.000000000000 
     1599.000   0.000000000000 
     1600.000   0.000000000000 
     1601.000   0.000000000000 
     1602.000   0.000000000000 
     1603.000   0.000000000000 
     1604.000   0.000000000000 
     1605.000   0.000000000000 
     1606.000   0.000000000000 
     1607.000   0.000000000000 
     1608.000   0.000000000000 
     1609.000   0.000000000000 
     1610.000   0.000000000000 
     1611.000   0.000000000000 
     1612.000   0.000000000000 
     1613.000   0.000000000000 
     1614.000   0.000000000000 
     1615.000   0.000000000000 
     1616.000   0.000000000000 
     1617.000   0.000000000000 
     1618.000   0.000000000000 
     1619.000   0.000000000000 
     1620.000   0.000000000000 
     1621.000   0.000000000000 
     1622.000   0.000000000000 
     1623.000   0.000000000000 
     1624.000   0.000000000000 
     1625.000   0.000000000000 
     1626.000   0.000000000000 
     1627.000   0.000000000000 
     1628.000   0.000000000000 
     1629.000   0.000000000000 
     1630.000   0.000000000000 
     1631.000   0.000000000000 
     1632.000   0.000000000000 
     1633.000   0.000000000000 
     1634.000   0.000000000000 
     1635.000   0.000000000000 
     1636.000   0.000000000000 
     1637.000   0.000000000000 
     1638.000   0.000000000000 
     1639.000   0.000000000000 
     1640.000   0.000000000000 
     1641.000   0.000000000000 
     1642.000   0.000000000000 
     1643.000   0.000000000000 
     1644.000   0.000000000000 
     1645.000   0.000000000000 
     1646.000   0.000000000000 
     1647.000   0.000000000000 
     1648.000   0.000000000000 
     1649.000   0.000000000000 
     1650.000   0.000000000000 
     1651.000   0.000000000000 
     1652.000   0.000000000000 
     1653.000   0.000000000000 
     1654.000   0.000000000000 
     1655.000   0.000000000000 
     1656.000   0.000000000000 
     1657.000   0.000000000000 
     1658.000   0.000000000000 
     1659.000   0.000000000000 
     1660.000   0.000000000000 
     1661.000   0.000000000000 
     1662.000   0.000000000000 
     1663.000   0.000000000000 
     1664.000   0.000000000000 
     1665.000   0.000000000000 
     1666.000   0.000000000000 
     1667.000   0.000000000000 
     1668.000   0.000000000000 
     1669.000   0.000000000000 
     1670.000   0.000000000000 
     1671.000   0.000000000000 
     1672.000   0.000000000000 
     1673.000   0.000000000000 
     1674.000   0.000000000000 
     1675.000   0.000000000000 
     1676.000   0.000000000000 
     1677.000   0.000000000000 
     1678.000   0.000000000000 
     1679.000   0.000000000000 
     1680.000   0.000000000000 
     1681.000   0.000000000000 
     1682.000   0.000000000000 
     1683.000   0.000000000000 
     1684.000   0.000000000000 
     1685.000   0.000000000000 
     1686.000   0.000000000000 
     1687.000   0.000000000000 
     1688.000   0.000000000000 
     1689.000   0.000000000000 
     1690.000   0.000000000000 
     1691.000   0.245000004768 
     1692.000   0.490000009537 
     1693.000   0.735000014305 
     1694.000   0.980000019073 
     1695.000   1.225000023842 
     1696.000   1.470000028610 
     1697.000   1.715000033379 
     1698.000   1.960000038147 
     1699.000   2.204999923706 
     1700.000   2.450000047684 
     1701.000   2.467600107193 
     1702.000   2.485199928284 
     1703.000   2.502799987793 
     1704.000   2.520400047302 
     1705.000   2.538000106812 
     1706.000   2.555599927902 
     1707.000   2.573199987411 
     1708.000   2.590800046921 
     1709.000   2.608400106430 
     1710.000   2.625999927521 
     1711.000   2.643599987030 
     1712.000   2.661200046539 
     1713.000   2.678800106049 
     1714.000   2.696399927139 
     1715.000   2.713999986649 
     1716.000   2.731600046158 
     1717.000   2.749200105667 
     1718.000   2.766799926758 
     1719.000   2.784399986267 
     1720.000   2.802000045776 
     1721.000   2.819600105286 
     1722.000   2.837199926376 
     1723.000   2.854799985886 
     1724.000   2.872400045395 
     1725.000   2.890000104904 
     1726.000   2.907599925995 
     1727.000   2.925199985504 
     1728.000   2.942800045013 
     1729.000   2.960400104523 
     1730.000   2.977999925613 
     1731.000   2.995599985123 
     1732.000   3.013200044632 
     1733.000   3.030800104141 
     1734.000   3.048399925232 
     1735.000   3.065999984741 
     1736.000   3.083600044250 
     1737.000   3.101200103760 
     1738.000   3.118799924850 
     1739.000   3.136399984360 
     1740.000   3.154000043869 
     1741.000   3.171600103378 
     1742.000   3.189199924469 
     1743.000   3.206799983978 
     1744.000   3.224400043488 
     1745.000   3.242000102997 
     1746.000   3.259599924088 
     1747.000   3.277199983597 
     1748.000   3.294800043106 
     1749.000   3.312400102615 
     1750.000   3.329999923706 
     1751.000   3.467200040817 
     1752.000   3.604399919510 
     1753.000   3.741600036621 
     1754.000   3.878799915314 
     1755.000   4.015999794006 
     1756.000   4.153200149536 
     1757.000   4.290400028229 
     1758.000   4.427599906921 
     1759.000   4.564799785614 
     1760.000   4.702000141144 
     1761.000   4.839200019836 
     1762.000   4.976399898529 
     1763.000   5.113599777222 
     1764.000   5.250800132751 
     1765.000   5.388000011444 
     1766.000   5.525199890137 
     1767.000   5.662399768829 
     1768.000   5.799600124359 
     1769.000   5.936800003052 
     1770.000   6.073999881744 
     1771.000   6.211200237274 
     1772.000   6.348400115967 
     1773.000   6.485599994659 
     1774.000   6.622799873352 
     1775.000   6.760000228882 
     1776.000   6.897200107574 
     1777.000   7.034399986267 
     1778.000   7.171599864960 
     1779.000   7.308800220490 
     1780.000   7.446000099182 
     1781.000   7.583199977875 
     1782.000   7.720399856567 
     1783.000   7.857600212097 
     1784.000   7.994800090790 
     1785.000   8.131999969482 
     1786.000   8.269200325012 
     1787.000   8.406399726868 
     1788.000   8.543600082397 
     1789.000   8.680800437927 
     1790.000   8.817999839783 
     1791.000   8.955200195312 
     1792.000   9.092399597168 
     1793.000   9.229599952698 
     1794.000   9.366800308228 
     1795.000   9.503999710083 
     1796.000   9.641200065613 
     1797.000   9.778400421143 
     1798.000   9.915599822998 
     1799.000  10.052800178528 
     1800.000  10.189999580383 
     1801.000  10.338000297546 
     1802.000  10.486000061035 
     1803.000  10.633999824524 
     1804.000  10.781999588013 
     1805.000  10.930000305176 
     1806.000  11.078000068665 
     1807.000  11.225999832153 
     1808.000  11.373999595642 
     1809.000  11.522000312805 
     1810.000  11.670000076294 
     1811.000  11.817999839783 
     1812.000  11.965999603271 
     1813.000  12.114000320435 
     1814.000  12.262000083923 
     1815.000  12.409999847412 
     1816.000  12.557999610901 
     1817.000  12.706000328064 
     1818.000  12.854000091553 
     1819.000  13.001999855042 
     1820.000  13.149999618530 
     1821.000  13.298000335693 
     1822.000  13.446000099182 
     1823.000  13.593999862671 
     1824.000  13.741999626160 
     1825.000  13.890000343323 
     1826.000  14.038000106812 
     1827.000  14.185999870300 
     1828.000  14.333999633789 
     1829.000  14.482000350952 
     1830.000  14.630000114441 
     1831.000  14.777999877930 
     1832.000  14.925999641418 
     1833.000  15.074000358582 
     1834.000  15.222000122070 
     1835.000  15.369999885559 
     1836.000  15.517999649048 
     1837.000  15.666000366211 
     1838.000  15.814000129700 
     1839.000  15.961999893188 
     1840.000  16.110000610352 
     1841.000  16.257999420166 
     1842.000  16.406000137329 
     1843.000  16.554000854492 
     1844.000  16.701999664307 
     1845.000  16.850000381470 
     1846.000  16.997999191284 
     1847.000  17.145999908447 
     1848.000  17.294000625610 
     1849.000  17.441999435425 
     1850.000  17.590000152588 
     1851.000  17.771999359131 
     1852.000  17.954000473022 
     1853.000  18.135999679565 
     1854.000  18.318000793457 
     1855.000  18.500000000000 
     1856.000  18.681999206543 
     1857.000  18.864000320435 
     1858.000  19.045999526978 
     1859.000  19.228000640869 
     1860.000  19.409999847412 
     1861.000  19.591999053955 
     1862.000  19.774000167847 
     1863.000  19.955999374390 
     1864.000  20.138000488281 
     1865.000  20.319999694824 
     1866.000  20.502000808716 
     1867.000  20.684000015259 
     1868.000  20.865999221802 
     1869.000  21.048000335693 
     1870.000  21.229999542236 
     1871.000  21.412000656128 
     1872.000  21.593999862671 
     1873.000  21.775999069214 
     1874.000  21.958000183105 
     1875.000  22.139999389648 
     1876.000  22.322000503540 
     1877.000  22.503999710083 
     1878.000  22.686000823975 
     1879.000  22.868000030518 
     1880.000  23.049999237061 
     1881.000  23.232000350952 
     1882.000  23.413999557495 
     1883.000  23.596000671387 
     1884.000  23.777999877930 
     1885.000  23.959999084473 
     1886.000  24.142000198364 
     1887.000  24.323999404907 
     1888.000  24.506000518799 
     1889.000  24.687999725342 
     1890.000  24.870000839233 
     1891.000  25.052000045776 
     1892.000  25.233999252319 
     1893.000  25.416000366211 
     1894.000  25.597999572754 
     1895.000  25.780000686646 
     1896.000  25.961999893188 
     1897.000  26.143999099731 
     1898.000  26.326000213623 
     1899.000  26.507999420166 
     1900.000  26.690000534058 
     1901.000  26.823600769043 
     1902.000  26.957199096680 
     1903.000  27.090799331665 
     1904.000  27.224399566650 
     1905.000  27.357999801636 
     1906.000  27.491600036621 
     1907.000  27.625200271606 
     1908.000  27.758800506592 
     1909.000  27.892400741577 
     1910.000  28.025999069214 
     1911.000  28.159599304199 
     1912.000  28.293199539185 
     1913.000  28.426799774170 
     1914.000  28.560400009155 
     1915.000  28.694000244141 
     1916.000  28.827600479126 
     1917.000  28.961200714111 
     1918.000  29.094800949097 
     1919.000  29.228399276733 
     1920.000  29.361999511719 
     1921.000  29.495599746704 
     1922.000  29.629199981689 
     1923.000  29.762800216675 
     1924.000  29.896400451660 
     1925.000  30.030000686646 
     1926.000  30.163600921631 
     1927.000  30.297199249268 
     1928.000  30.430799484253 
     1929.000  30.564399719238 
     1930.000  30.697999954224 
     1931.000  30.831600189209 
     1932.000  30.965200424194 
     1933.000  31.098800659180 
     1934.000  31.232400894165 
     1935.000  31.365999221802 
     1936.000  31.499599456787 
     1937.000  31.633199691772 
     1938.000  31.766799926758 
     1939.000  31.900400161743 
     1940.000  32.034000396729 
     1941.000  32.167598724365 
     1942.000  32.301200866699 
     1943.000  32.434799194336 
     1944.000  32.568401336670 
     1945.000  32.701999664307 
     1946.000  32.835601806641 
     1947.000  32.969200134277 
     1948.000  33.102798461914 
     1949.000  33.236400604248 
     1950.000  33.369998931885 
     1951.000  33.601200103760 
     1952.000  33.832401275635 
     1953.000  34.063598632812 
     1954.000  34.294799804688 
     1955.000  34.526000976562 
     1956.000  34.757198333740 
     1957.000  34.988399505615 
     1958.000  35.219600677490 
     1959.000  35.450801849365 
     1960.000  35.681999206543 
     1961.000  35.913200378418 
     1962.000  36.144401550293 
     1963.000  36.375598907471 
     1964.000  36.606800079346 
     1965.000  36.838001251221 
     1966.000  37.069198608398 
     1967.000  37.300399780273 
     1968.000  37.531600952148 
     1969.000  37.762798309326 
     1970.000  37.993999481201 
     1971.000  38.225200653076 
     1972.000  38.456401824951 
     1973.000  38.687599182129 
     1974.000  38.918800354004 
     1975.000  39.150001525879 
     1976.000  39.381198883057 
     1977.000  39.612400054932 
     1978.000  39.843601226807 
     1979.000  40.074798583984 
     1980.000  40.305999755859 
     1981.000  40.537200927734 
     1982.000  40.768398284912 
     1983.000  40.999599456787 
     1984.000  41.230800628662 
     1985.000  41.462001800537 
     1986.000  41.693199157715 
     1987.000  41.924400329590 
     1988.000  42.155601501465 
     1989.000  42.386798858643 
     1990.000  42.618000030518 
     1991.000  42.849201202393 
     1992.000  43.080398559570 
     1993.000  43.311599731445 
     1994.000  43.542800903320 
     1995.000  43.773998260498 
     1996.000  44.005199432373 
     1997.000  44.236400604248 
     1998.000  44.467601776123 
     1999.000  44.698799133301 
     2000.000  44.930000305176 
     2001.000  44.973598480225 
     2002.000  45.017200469971 
     2003.000  45.060798645020 
     2004.000  45.104400634766 
     2005.000  45.147998809814 
     2006.000  45.191600799561 
     2007.000  45.235198974609 
     2008.000  45.278800964355 
     2009.000  45.322399139404 
     2010.000  45.366001129150 
     2011.000  45.409599304199 
     2012.000  45.453201293945 
     2013.000  45.496799468994 
     2014.000  45.540401458740 
     2015.000  45.583999633789 
     2016.000  45.627601623535 
     2017.000  45.671199798584 
     2018.000  45.714801788330 
     2019.000  45.758399963379 
     2020.000  45.801998138428 
     2021.000  45.845600128174 
     2022.000  45.889198303223 
     2023.000  45.932800292969 
     2024.000  45.976398468018 
     2025.000  46.020000457764 
     2026.000  46.063598632812 
     2027.000  46.107200622559 
     2028.000  46.150798797607 
     2029.000  46.194400787354 
     2030.000  46.237998962402 
     2031.000  46.281600952148 
     2032.000  46.325199127197 
     2033.000  46.368801116943 
     2034.000  46.412399291992 
     2035.000  46.456001281738 
     2036.000  46.499599456787 
     2037.000  46.543201446533 
     2038.000  46.586799621582 
     2039.000  46.630401611328 
     2040.000  46.673999786377 
     2041.000  46.717601776123 
     2042.000  46.761199951172 
     2043.000  46.804798126221 
     2044.000  46.848400115967 
     2045.000  46.891998291016 
     2046.000  46.935600280762 
     2047.000  46.979198455811 
     2048.000  47.022800445557 
     2049.000  47.066398620605 
     2050.000  47.110000610352 
     2051.000  47.219799041748 
     2052.000  47.329601287842 
     2053.000  47.439399719238 
     2054.000  47.549198150635 
     2055.000  47.659000396729 
     2056.000  47.768798828125 
     2057.000  47.878601074219 
     2058.000  47.988399505615 
     2059.000  48.098201751709 
     2060.000  48.208000183105 
     2061.000  48.317798614502 
     2062.000  48.427600860596 
     2063.000  48.537399291992 
     2064.000  48.647201538086 
     2065.000  48.756999969482 
     2066.000  48.866798400879 
     2067.000  48.976600646973 
     2068.000  49.086399078369 
     2069.000  49.196201324463 
     2070.000  49.305999755859 
     2071.000  49.415798187256 
     2072.000  49.525600433350 
     2073.000  49.635398864746 
     2074.000  49.745201110840 
     2075.000  49.854999542236 
     2076.000  49.964801788330 
     2077.000  50.074600219727 
     2078.000  50.184398651123 
     2079.000  50.294200897217 
     2080.000  50.403999328613 
     2081.000  50.513801574707 
     2082.000  50.623600006104 
     2083.000  50.733398437500 
     2084.000  50.843200683594 
     2085.000  50.952999114990 
     2086.000  51.062801361084 
     2087.000  51.172599792480 
     2088.000  51.282398223877 
     2089.000  51.392200469971 
     2090.000  51.501998901367 
     2091.000  51.611801147461 
     2092.000  51.721599578857 
     2093.000  51.831401824951 
     2094.000  51.941200256348 
     2095.000  52.050998687744 
     2096.000  52.160800933838 
     2097.000  52.270599365234 
     2098.000  52.380401611328 
     2099.000  52.490200042725 
     2100.000  52.599998474121 
     2101.000  52.737998962402 
     2102.000  52.875999450684 
     2103.000  53.013999938965 
     2104.000  53.152000427246 
     2105.000  53.290000915527 
     2106.000  53.428001403809 
     2107.000  53.566001892090 
     2108.000  53.703998565674 
     2109.000  53.841999053955 
     2110.000  53.979999542236 
     2111.000  54.118000030518 
     2112.000  54.256000518799 
     2113.000  54.394001007080 
     2114.000  54.532001495361 
     2115.000  54.669998168945 
     2116.000  54.807998657227 
     2117.000  54.945999145508 
     2118.000  55.083999633789 
     2119.000  55.222000122070 
     2120.000  55.360000610352 
     2121.000  55.498001098633 
     2122.000  55.636001586914 
     2123.000  55.773998260498 
     2124.000  55.911998748779 
     2125.000  56.049999237061 
     2126.000  56.187999725342 
     2127.000  56.326000213623 
     2128.000  56.464000701904 
     2129.000  56.602001190186 
     2130.000  56.740001678467 
     2131.000  56.877998352051 
     2132.000  57.015998840332 
     2133.000  57.153999328613 
     2134.000  57.291999816895 
     2135.000  57.430000305176 
     2136.000  57.568000793457 
     2137.000  57.706001281738 
     2138.000  57.844001770020 
     2139.000  57.981998443604 
     2140.000  58.119998931885 
     2141.000  58.257999420166 
     2142.000  58.395999908447 
     2143.000  58.534000396729 
     2144.000  58.672000885010 
     2145.000  58.810001373291 
     2146.000  58.948001861572 
     2147.000  59.085998535156 
     2148.000  59.223999023438 
     2149.000  59.361999511719 
     2150.000  59.500000000000 
     2151.000  59.543201446533 
     2152.000  59.586399078369 
     2153.000  59.629600524902 
     2154.000  59.672798156738 
     2155.000  59.715999603271 
     2156.000  59.759201049805 
     2157.000  59.802398681641 
     2158.000  59.845600128174 
     2159.000  59.888801574707 
     2160.000  59.931999206543 
     2161.000  59.975200653076 
     2162.000  60.018398284912 
     2163.000  60.061599731445 
     2164.000  60.104801177979 
     2165.000  60.147998809814 
     2166.000  60.191200256348 
     2167.000  60.234401702881 
     2168.000  60.277599334717 
     2169.000  60.320800781250 
     2170.000  60.363998413086 
     2171.000  60.407199859619 
     2172.000  60.450401306152 
     2173.000  60.493598937988 
     2174.000  60.536800384521 
     2175.000  60.580001831055 
     2176.000  60.623199462891 
     2177.000  60.666400909424 
     2178.000  60.709598541260 
     2179.000  60.752799987793 
     2180.000  60.796001434326 
     2181.000  60.839199066162 
     2182.000  60.882400512695 
     2183.000  60.925598144531 
     2184.000  60.968799591064 
     2185.000  61.012001037598 
     2186.000  61.055198669434 
     2187.000  61.098400115967 
     2188.000  61.141601562500 
     2189.000  61.184799194336 
     2190.000  61.228000640869 
     2191.000  61.271198272705 
     2192.000  61.314399719238 
     2193.000  61.357601165771 
     2194.000  61.400798797607 
     2195.000  61.444000244141 
     2196.000  61.487201690674 
     2197.000  61.530399322510 
     2198.000  61.573600769043 
     2199.000  61.616798400879 
     2200.000  61.659999847412 
     2201.000  61.555198669434 
     2202.000  61.450401306152 
     2203.000  61.345600128174 
     2204.000  61.240798950195 
     2205.000  61.136001586914 
     2206.000  61.031200408936 
     2207.000  60.926399230957 
     2208.000  60.821601867676 
     2209.000  60.716800689697 
     2210.000  60.611999511719 
     2211.000  60.507198333740 
     2212.000  60.402400970459 
     2213.000  60.297599792480 
     2214.000  60.192798614502 
     2215.000  60.088001251221 
     2216.000  59.983200073242 
     2217.000  59.878398895264 
     2218.000  59.773601531982 
     2219.000  59.668800354004 
     2220.000  59.563999176025 
     2221.000  59.459201812744 
     2222.000  59.354400634766 
     2223.000  59.249599456787 
     2224.000  59.144798278809 
     2225.000  59.040000915527 
     2226.000  58.935199737549 
     2227.000  58.830398559570 
     2228.000  58.725601196289 
     2229.000  58.620800018311 
     2230.000  58.515998840332 
     2231.000  58.411201477051 
     2232.000  58.306400299072 
     2233.000  58.201599121094 
     2234.000  58.096801757812 
     2235.000  57.992000579834 
     2236.000  57.887199401855 
     2237.000  57.782398223877 
     2238.000  57.677600860596 
     2239.000  57.572799682617 
     2240.000  57.467998504639 
     2241.000  57.363201141357 
     2242.000  57.258399963379 
     2243.000  57.153598785400 
     2244.000  57.048801422119 
     2245.000  56.944000244141 
     2246.000  56.839199066162 
     2247.000  56.734401702881 
     2248.000  56.629600524902 
     2249.000  56.524799346924 
     2250.000  56.419998168945 
     2251.000  56.352798461914 
     2252.000  56.285598754883 
     2253.000  56.218399047852 
     2254.000  56.151199340820 
     2255.000  56.083999633789 
     2256.000  56.016799926758 
     2257.000  55.949600219727 
     2258.000  55.882400512695 
     2259.000  55.815200805664 
     2260.000  55.748001098633 
     2261.000  55.680801391602 
     2262.000  55.613601684570 
     2263.000  55.546398162842 
     2264.000  55.479198455811 
     2265.000  55.411998748779 
     2266.000  55.344799041748 
     2267.000  55.277599334717 
     2268.000  55.210399627686 
     2269.000  55.143199920654 
     2270.000  55.076000213623 
     2271.000  55.008800506592 
     2272.000  54.941600799561 
     2273.000  54.874401092529 
     2274.000  54.807201385498 
     2275.000  54.740001678467 
     2276.000  54.672798156738 
     2277.000  54.605598449707 
     2278.000  54.538398742676 
     2279.000  54.471199035645 
     2280.000  54.403999328613 
     2281.000  54.336799621582 
     2282.000  54.269599914551 
     2283.000  54.202400207520 
     2284.000  54.135200500488 
     2285.000  54.068000793457 
     2286.000  54.000801086426 
     2287.000  53.933601379395 
     2288.000  53.866401672363 
     2289.000  53.799198150635 
     2290.000  53.731998443604 
     2291.000  53.664798736572 
     2292.000  53.597599029541 
     2293.000  53.530399322510 
     2294.000  53.463199615479 
     2295.000  53.395999908447 
     2296.000  53.328800201416 
     2297.000  53.261600494385 
     2298.000  53.194400787354 
     2299.000  53.127201080322 
     2300.000  53.060001373291 
     2301.000  52.951801300049 
     2302.000  52.843601226807 
     2303.000  52.735401153564 
     2304.000  52.627201080322 
     2305.000  52.519001007080 
     2306.000  52.410800933838 
     2307.000  52.302600860596 
     2308.000  52.194400787354 
     2309.000  52.086200714111 
     2310.000  51.978000640869 
     2311.000  51.869800567627 
     2312.000  51.761600494385 
     2313.000  51.653400421143 
     2314.000  51.545200347900 
     2315.000  51.437000274658 
     2316.000  51.328800201416 
     2317.000  51.220600128174 
     2318.000  51.112400054932 
     2319.000  51.004199981689 
     2320.000  50.895999908447 
     2321.000  50.787799835205 
     2322.000  50.679599761963 
     2323.000  50.571399688721 
     2324.000  50.463199615479 
     2325.000  50.354999542236 
     2326.000  50.246799468994 
     2327.000  50.138599395752 
     2328.000  50.030399322510 
     2329.000  49.922199249268 
     2330.000  49.813999176025 
     2331.000  49.705799102783 
     2332.000  49.597599029541 
     2333.000  49.489398956299 
     2334.000  49.381198883057 
     2335.000  49.272998809814 
     2336.000  49.164798736572 
     2337.000  49.056598663330 
     2338.000  48.948398590088 
     2339.000  48.840198516846 
     2340.000  48.731998443604 
     2341.000  48.623798370361 
     2342.000  48.515598297119 
     2343.000  48.407398223877 
     2344.000  48.299198150635 
     2345.000  48.191001892090 
     2346.000  48.082801818848 
     2347.000  47.974601745605 
     2348.000  47.866401672363 
     2349.000  47.758201599121 
     2350.000  47.650001525879 
     2351.000  47.711601257324 
     2352.000  47.773200988770 
     2353.000  47.834800720215 
     2354.000  47.896400451660 
     2355.000  47.958000183105 
     2356.000  48.019599914551 
     2357.000  48.081199645996 
     2358.000  48.142799377441 
     2359.000  48.204399108887 
     2360.000  48.265998840332 
     2361.000  48.327598571777 
     2362.000  48.389198303223 
     2363.000  48.450801849365 
     2364.000  48.512401580811 
     2365.000  48.574001312256 
     2366.000  48.635601043701 
     2367.000  48.697200775146 
     2368.000  48.758800506592 
     2369.000  48.820400238037 
     2370.000  48.881999969482 
     2371.000  48.943599700928 
     2372.000  49.005199432373 
     2373.000  49.066799163818 
     2374.000  49.128398895264 
     2375.000  49.189998626709 
     2376.000  49.251598358154 
     2377.000  49.313201904297 
     2378.000  49.374801635742 
     2379.000  49.436401367188 
     2380.000  49.498001098633 
     2381.000  49.559600830078 
     2382.000  49.621200561523 
     2383.000  49.682800292969 
     2384.000  49.744400024414 
     2385.000  49.805999755859 
     2386.000  49.867599487305 
     2387.000  49.929199218750 
     2388.000  49.990798950195 
     2389.000  50.052398681641 
     2390.000  50.113998413086 
     2391.000  50.175598144531 
     2392.000  50.237201690674 
     2393.000  50.298801422119 
     2394.000  50.360401153564 
     2395.000  50.422000885010 
     2396.000  50.483600616455 
     2397.000  50.545200347900 
     2398.000  50.606800079346 
     2399.000  50.668399810791 
     2400.000  50.729999542236 
     2401.000  50.784801483154 
     2402.000  50.839599609375 
     2403.000  50.894401550293 
     2404.000  50.949199676514 
     2405.000  51.004001617432 
     2406.000  51.058799743652 
     2407.000  51.113601684570 
     2408.000  51.168399810791 
     2409.000  51.223201751709 
     2410.000  51.277999877930 
     2411.000  51.332801818848 
     2412.000  51.387599945068 
     2413.000  51.442401885986 
     2414.000  51.497200012207 
     2415.000  51.551998138428 
     2416.000  51.606800079346 
     2417.000  51.661598205566 
     2418.000  51.716400146484 
     2419.000  51.771198272705 
     2420.000  51.826000213623 
     2421.000  51.880798339844 
     2422.000  51.935600280762 
     2423.000  51.990398406982 
     2424.000  52.045200347900 
     2425.000  52.099998474121 
     2426.000  52.154800415039 
     2427.000  52.209598541260 
     2428.000  52.264400482178 
     2429.000  52.319198608398 
     2430.000  52.374000549316 
     2431.000  52.428798675537 
     2432.000  52.483600616455 
     2433.000  52.538398742676 
     2434.000  52.593200683594 
     2435.000  52.647998809814 
     2436.000  52.702800750732 
     2437.000  52.757598876953 
     2438.000  52.812400817871 
     2439.000  52.867198944092 
     2440.000  52.922000885010 
     2441.000  52.976799011230 
     2442.000  53.031600952148 
     2443.000  53.086399078369 
     2444.000  53.141201019287 
     2445.000  53.195999145508 
     2446.000  53.250801086426 
     2447.000  53.305599212646 
     2448.000  53.360401153564 
     2449.000  53.415199279785 
     2450.000  53.470001220703 
     2451.000  53.450801849365 
     2452.000  53.431598663330 
     2453.000  53.412399291992 
     2454.000  53.393199920654 
     2455.000  53.374000549316 
     2456.000  53.354801177979 
     2457.000  53.335601806641 
     2458.000  53.316398620605 
     2459.000  53.297199249268 
     2460.000  53.277999877930 
     2461.000  53.258800506592 
     2462.000  53.239601135254 
     2463.000  53.220401763916 
     2464.000  53.201198577881 
     2465.000  53.181999206543 
     2466.000  53.162799835205 
     2467.000  53.143600463867 
     2468.000  53.124401092529 
     2469.000  53.105201721191 
     2470.000  53.085998535156 
     2471.000  53.066799163818 
     2472.000  53.047599792480 
     2473.000  53.028400421143 
     2474.000  53.009201049805 
     2475.000  52.990001678467 
     2476.000  52.970798492432 
     2477.000  52.951599121094 
     2478.000  52.932399749756 
     2479.000  52.913200378418 
     2480.000  52.894001007080 
     2481.000  52.874801635742 
     2482.000  52.855598449707 
     2483.000  52.836399078369 
     2484.000  52.817199707031 
     2485.000  52.798000335693 
     2486.000  52.778800964355 
     2487.000  52.759601593018 
     2488.000  52.740398406982 
     2489.000  52.721199035645 
     2490.000  52.701999664307 
     2491.000  52.682800292969 
     2492.000  52.663600921631 
     2493.000  52.644401550293 
     2494.000  52.625198364258 
     2495.000  52.605998992920 
     2496.000  52.586799621582 
     2497.000  52.567600250244 
     2498.000  52.548400878906 
     2499.000  52.529201507568 
     2500.000  52.509998321533 
     2501.000  52.492401123047 
     2502.000  52.474800109863 
     2503.000  52.457199096680 
     2504.000  52.439601898193 
     2505.000  52.422000885010 
     2506.000  52.404399871826 
     2507.000  52.386798858643 
     2508.000  52.369201660156 
     2509.000  52.351600646973 
     2510.000  52.333999633789 
     2511.000  52.316398620605 
     2512.000  52.298801422119 
     2513.000  52.281200408936 
     2514.000  52.263599395752 
     2515.000  52.245998382568 
     2516.000  52.228401184082 
     2517.000  52.210800170898 
     2518.000  52.193199157715 
     2519.000  52.175598144531 
     2520.000  52.158000946045 
     2521.000  52.140399932861 
     2522.000  52.122798919678 
     2523.000  52.105201721191 
     2524.000  52.087600708008 
     2525.000  52.069999694824 
     2526.000  52.052398681641 
     2527.000  52.034801483154 
     2528.000  52.017200469971 
     2529.000  51.999599456787 
     2530.000  51.981998443604 
     2531.000  51.964401245117 
     2532.000  51.946800231934 
     2533.000  51.929199218750 
     2534.000  51.911598205566 
     2535.000  51.894001007080 
     2536.000  51.876399993896 
     2537.000  51.858798980713 
     2538.000  51.841201782227 
     2539.000  51.823600769043 
     2540.000  51.805999755859 
     2541.000  51.788398742676 
     2542.000  51.770801544189 
     2543.000  51.753200531006 
     2544.000  51.735599517822 
     2545.000  51.717998504639 
     2546.000  51.700401306152 
     2547.000  51.682800292969 
     2548.000  51.665199279785 
     2549.000  51.647598266602 
     2550.000  51.630001068115 
     2551.000  51.598800659180 
     2552.000  51.567600250244 
     2553.000  51.536399841309 
     2554.000  51.505199432373 
     2555.000  51.473999023438 
     2556.000  51.442798614502 
     2557.000  51.411598205566 
     2558.000  51.380401611328 
     2559.000  51.349201202393 
     2560.000  51.318000793457 
     2561.000  51.286800384521 
     2562.000  51.255599975586 
     2563.000  51.224399566650 
     2564.000  51.193199157715 
     2565.000  51.161998748779 
     2566.000  51.130798339844 
     2567.000  51.099601745605 
     2568.000  51.068401336670 
     2569.000  51.037200927734 
     2570.000  51.006000518799 
     2571.000  50.974800109863 
     2572.000  50.943599700928 
     2573.000  50.912399291992 
     2574.000  50.881198883057 
     2575.000  50.849998474121 
     2576.000  50.818801879883 
     2577.000  50.787601470947 
     2578.000  50.756401062012 
     2579.000  50.725200653076 
     2580.000  50.694000244141 
     2581.000  50.662799835205 
     2582.000  50.631599426270 
     2583.000  50.600399017334 
     2584.000  50.569198608398 
     2585.000  50.537998199463 
     2586.000  50.506801605225 
     2587.000  50.475601196289 
     2588.000  50.444400787354 
     2589.000  50.413200378418 
     2590.000  50.381999969482 
     2591.000  50.350799560547 
     2592.000  50.319599151611 
     2593.000  50.288398742676 
     2594.000  50.257198333740 
     2595.000  50.226001739502 
     2596.000  50.194801330566 
     2597.000  50.163600921631 
     2598.000  50.132400512695 
     2599.000  50.101200103760 
     2600.000  50.069999694824 
     2601.000  49.982398986816 
     2602.000  49.894798278809 
     2603.000  49.807201385498 
     2604.000  49.719600677490 
     2605.000  49.631999969482 
     2606.000  49.544399261475 
     2607.000  49.456798553467 
     2608.000  49.369201660156 
     2609.000  49.281600952148 
     2610.000  49.194000244141 
     2611.000  49.106399536133 
     2612.000  49.018798828125 
     2613.000  48.931198120117 
     2614.000  48.843601226807 
     2615.000  48.756000518799 
     2616.000  48.668399810791 
     2617.000  48.580799102783 
     2618.000  48.493198394775 
     2619.000  48.405601501465 
     2620.000  48.318000793457 
     2621.000  48.230400085449 
     2622.000  48.142799377441 
     2623.000  48.055198669434 
     2624.000  47.967601776123 
     2625.000  47.880001068115 
     2626.000  47.792400360107 
     2627.000  47.704799652100 
     2628.000  47.617198944092 
     2629.000  47.529598236084 
     2630.000  47.442001342773 
     2631.000  47.354400634766 
     2632.000  47.266799926758 
     2633.000  47.179199218750 
     2634.000  47.091598510742 
     2635.000  47.004001617432 
     2636.000  46.916400909424 
     2637.000  46.828800201416 
     2638.000  46.741199493408 
     2639.000  46.653598785400 
     2640.000  46.566001892090 
     2641.000  46.478401184082 
     2642.000  46.390800476074 
     2643.000  46.303199768066 
     2644.000  46.215599060059 
     2645.000  46.127998352051 
     2646.000  46.040401458740 
     2647.000  45.952800750732 
     2648.000  45.865200042725 
     2649.000  45.777599334717 
     2650.000  45.689998626709 
     2651.000  45.527999877930 
     2652.000  45.366001129150 
     2653.000  45.203998565674 
     2654.000  45.041999816895 
     2655.000  44.880001068115 
     2656.000  44.717998504639 
     2657.000  44.555999755859 
     2658.000  44.394001007080 
     2659.000  44.231998443604 
     2660.000  44.069999694824 
     2661.000  43.908000946045 
     2662.000  43.745998382568 
     2663.000  43.583999633789 
     2664.000  43.422000885010 
     2665.000  43.259998321533 
     2666.000  43.097999572754 
     2667.000  42.936000823975 
     2668.000  42.773998260498 
     2669.000  42.611999511719 
     2670.000  42.450000762939 
     2671.000  42.287998199463 
     2672.000  42.125999450684 
     2673.000  41.964000701904 
     2674.000  41.801998138428 
     2675.000  41.639999389648 
     2676.000  41.478000640869 
     2677.000  41.316001892090 
     2678.000  41.153999328613 
     2679.000  40.992000579834 
     2680.000  40.830001831055 
     2681.000  40.667999267578 
     2682.000  40.506000518799 
     2683.000  40.344001770020 
     2684.000  40.181999206543 
     2685.000  40.020000457764 
     2686.000  39.858001708984 
     2687.000  39.695999145508 
     2688.000  39.534000396729 
     2689.000  39.372001647949 
     2690.000  39.209999084473 
     2691.000  39.048000335693 
     2692.000  38.886001586914 
     2693.000  38.723999023438 
     2694.000  38.562000274658 
     2695.000  38.400001525879 
     2696.000  38.237998962402 
     2697.000  38.076000213623 
     2698.000  37.914001464844 
     2699.000  37.751998901367 
     2700.000  37.590000152588 
     2701.000  37.336200714111 
     2702.000  37.082401275635 
     2703.000  36.828601837158 
     2704.000  36.574798583984 
     2705.000  36.320999145508 
     2706.000  36.067199707031 
     2707.000  35.813400268555 
     2708.000  35.559600830078 
     2709.000  35.305801391602 
     2710.000  35.051998138428 
     2711.000  34.798198699951 
     2712.000  34.544399261475 
     2713.000  34.290599822998 
     2714.000  34.036800384521 
     2715.000  33.783000946045 
     2716.000  33.529201507568 
     2717.000  33.275398254395 
     2718.000  33.021598815918 
     2719.000  32.767799377441 
     2720.000  32.513999938965 
     2721.000  32.260200500488 
     2722.000  32.006401062012 
     2723.000  31.752599716187 
     2724.000  31.498800277710 
     2725.000  31.245000839233 
     2726.000  30.991199493408 
     2727.000  30.737400054932 
     2728.000  30.483600616455 
     2729.000  30.229799270630 
     2730.000  29.975999832153 
     2731.000  29.722200393677 
     2732.000  29.468399047852 
     2733.000  29.214599609375 
     2734.000  28.960800170898 
     2735.000  28.707000732422 
     2736.000  28.453199386597 
     2737.000  28.199399948120 
     2738.000  27.945600509644 
     2739.000  27.691799163818 
     2740.000  27.437999725342 
     2741.000  27.184200286865 
     2742.000  26.930400848389 
     2743.000  26.676599502563 
     2744.000  26.422800064087 
     2745.000  26.169000625610 
     2746.000  25.915199279785 
     2747.000  25.661399841309 
     2748.000  25.407600402832 
     2749.000  25.153799057007 
     2750.000  24.899999618530 
     2751.000  24.618600845337 
     2752.000  24.337200164795 
     2753.000  24.055799484253 
     2754.000  23.774400711060 
     2755.000  23.493000030518 
     2756.000  23.211599349976 
     2757.000  22.930200576782 
     2758.000  22.648799896240 
     2759.000  22.367399215698 
     2760.000  22.086000442505 
     2761.000  21.804599761963 
     2762.000  21.523199081421 
     2763.000  21.241800308228 
     2764.000  20.960399627686 
     2765.000  20.679000854492 
     2766.000  20.397600173950 
     2767.000  20.116199493408 
     2768.000  19.834800720215 
     2769.000  19.553400039673 
     2770.000  19.271999359131 
     2771.000  18.990600585938 
     2772.000  18.709199905396 
     2773.000  18.427799224854 
     2774.000  18.146400451660 
     2775.000  17.864999771118 
     2776.000  17.583599090576 
     2777.000  17.302200317383 
     2778.000  17.020799636841 
     2779.000  16.739400863647 
     2780.000  16.458000183105 
     2781.000  16.176599502563 
     2782.000  15.895199775696 
     2783.000  15.613800048828 
     2784.000  15.332400321960 
     2785.000  15.050999641418 
     2786.000  14.769599914551 
     2787.000  14.488200187683 
     2788.000  14.206800460815 
     2789.000  13.925399780273 
     2790.000  13.644000053406 
     2791.000  13.362600326538 
     2792.000  13.081199645996 
     2793.000  12.799799919128 
     2794.000  12.518400192261 
     2795.000  12.237000465393 
     2796.000  11.955599784851 
     2797.000  11.674200057983 
     2798.000  11.392800331116 
     2799.000  11.111399650574 
     2800.000  10.829999923706 
     2801.000  10.682399749756 
     2802.000  10.534799575806 
     2803.000  10.387200355530 
     2804.000  10.239600181580 
     2805.000  10.092000007629 
     2806.000   9.944399833679 
     2807.000   9.796799659729 
     2808.000   9.649200439453 
     2809.000   9.501600265503 
     2810.000   9.354000091553 
     2811.000   9.206399917603 
     2812.000   9.058799743652 
     2813.000   8.911199569702 
     2814.000   8.763600349426 
     2815.000   8.616000175476 
     2816.000   8.468400001526 
     2817.000   8.320799827576 
     2818.000   8.173199653625 
     2819.000   8.025600433350 
     2820.000   7.877999782562 
     2821.000   7.730400085449 
     2822.000   7.582799911499 
     2823.000   7.435200214386 
     2824.000   7.287600040436 
     2825.000   7.139999866486 
     2826.000   6.992400169373 
     2827.000   6.844799995422 
     2828.000   6.697199821472 
     2829.000   6.549600124359 
     2830.000   6.401999950409 
     2831.000   6.254399776459 
     2832.000   6.106800079346 
     2833.000   5.959199905396 
     2834.000   5.811600208282 
     2835.000   5.664000034332 
     2836.000   5.516399860382 
     2837.000   5.368800163269 
     2838.000   5.221199989319 
     2839.000   5.073599815369 
     2840.000   4.926000118256 
     2841.000   4.778399944305 
     2842.000   4.630799770355 
     2843.000   4.483200073242 
     2844.000   4.335599899292 
     2845.000   4.188000202179 
     2846.000   4.040400028229 
     2847.000   3.892800092697 
     2848.000   3.745199918747 
     2849.000   3.597599983215 
     2850.000   3.450000047684 
     2851.000   3.405999898911 
     2852.000   3.361999988556 
     2853.000   3.318000078201 
     2854.000   3.273999929428 
     2855.000   3.230000019073 
     2856.000   3.186000108719 
     2857.000   3.141999959946 
     2858.000   3.098000049591 
     2859.000   3.053999900818 
     2860.000   3.009999990463 
     2861.000   2.966000080109 
     2862.000   2.921999931335 
     2863.000   2.878000020981 
     2864.000   2.834000110626 
     2865.000   2.789999961853 
     2866.000   2.746000051498 
     2867.000   2.701999902725 
     2868.000   2.657999992371 
     2869.000   2.614000082016 
     2870.000   2.569999933243 
     2871.000   2.526000022888 
     2872.000   2.482000112534 
     2873.000   2.437999963760 
     2874.000   2.394000053406 
     2875.000   2.349999904633 
     2876.000   2.305999994278 
     2877.000   2.262000083923 
     2878.000   2.217999935150 
     2879.000   2.174000024796 
     2880.000   2.130000114441 
     2881.000   2.085999965668 
     2882.000   2.042000055313 
     2883.000   1.998000025749 
     2884.000   1.953999996185 
     2885.000   1.909999966621 
     2886.000   1.866000056267 
     2887.000   1.822000026703 
     2888.000   1.777999997139 
     2889.000   1.733999967575 
     2890.000   1.690000057220 
     2891.000   1.646000027657 
     2892.000   1.601999998093 
     2893.000   1.557999968529 
     2894.000   1.514000058174 
     2895.000   1.470000028610 
     2896.000   1.425999999046 
     2897.000   1.381999969482 
     2898.000   1.338000059128 
     2899.000   1.294000029564 
     2900.000   1.250000000000 
     2901.000   1.252200007439 
     2902.000   1.254400014877 
     2903.000   1.256600022316 
     2904.000   1.258800029755 
     2905.000   1.261000037193 
     2906.000   1.263200044632 
     2907.000   1.265400052071 
     2908.000   1.267600059509 
     2909.000   1.269799947739 
     2910.000   1.271999955177 
     2911.000   1.274199962616 
     2912.000   1.276399970055 
     2913.000   1.278599977493 
     2914.000   1.280799984932 
     2915.000   1.282999992371 
     2916.000   1.285199999809 
     2917.000   1.287400007248 
     2918.000   1.289600014687 
     2919.000   1.291800022125 
     2920.000   1.294000029564 
     2921.000   1.296200037003 
     2922.000   1.298400044441 
     2923.000   1.300600051880 
     2924.000   1.302800059319 
     2925.000   1.304999947548 
     2926.000   1.307199954987 
     2927.000   1.309399962425 
     2928.000   1.311599969864 
     2929.000   1.313799977303 
     2930.000   1.315999984741 
     2931.000   1.318199992180 
     2932.000   1.320399999619 
     2933.000   1.322600007057 
     2934.000   1.324800014496 
     2935.000   1.327000021935 
     2936.000   1.329200029373 
     2937.000   1.331400036812 
     2938.000   1.333600044250 
     2939.000   1.335800051689 
     2940.000   1.338000059128 
     2941.000   1.340199947357 
     2942.000   1.342399954796 
     2943.000   1.344599962234 
     2944.000   1.346799969673 
     2945.000   1.348999977112 
     2946.000   1.351199984550 
     2947.000   1.353399991989 
     2948.000   1.355599999428 
     2949.000   1.357800006866 
     2950.000   1.360000014305 
     2951.000   1.369799971581 
     2952.000   1.379600048065 
     2953.000   1.389400005341 
     2954.000   1.399199962616 
     2955.000   1.409000039101 
     2956.000   1.418799996376 
     2957.000   1.428599953651 
     2958.000   1.438400030136 
     2959.000   1.448199987411 
     2960.000   1.457999944687 
     2961.000   1.467800021172 
     2962.000   1.477599978447 
     2963.000   1.487400054932 
     2964.000   1.497200012207 
     2965.000   1.506999969482 
     2966.000   1.516800045967 
     2967.000   1.526600003242 
     2968.000   1.536399960518 
     2969.000   1.546200037003 
     2970.000   1.555999994278 
     2971.000   1.565799951553 
     2972.000   1.575600028038 
     2973.000   1.585399985313 
     2974.000   1.595199942589 
     2975.000   1.605000019073 
     2976.000   1.614799976349 
     2977.000   1.624600052834 
     2978.000   1.634400010109 
     2979.000   1.644199967384 
     2980.000   1.654000043869 
     2981.000   1.663800001144 
     2982.000   1.673599958420 
     2983.000   1.683400034904 
     2984.000   1.693199992180 
     2985.000   1.702999949455 
     2986.000   1.712800025940 
     2987.000   1.722599983215 
     2988.000   1.732399940491 
     2989.000   1.742200016975 
     2990.000   1.751999974251 
     2991.000   1.761800050735 
     2992.000   1.771600008011 
     2993.000   1.781399965286 
     2994.000   1.791200041771 
     2995.000   1.800999999046 
     2996.000   1.810799956322 
     2997.000   1.820600032806 
     2998.000   1.830399990082 
     2999.000   1.840199947357 
     3000.000   1.850000023842 
     3001.000   1.664999961853 
     3002.000   1.480000019073 
     3003.000   1.294999957085 
     3004.000   1.110000014305 
     3005.000   0.925000011921 
     3006.000   0.740000009537 
     3007.000   0.555000007153 
     3008.000   0.370000004768 
     3009.000   0.185000002384 
     3010.000   0.000000000000 
     3011.000   0.000000000000 
     3012.000   0.000000000000 
     3013.000   0.000000000000 
     3014.000   0.000000000000 
     3015.000   0.000000000000 
     3016.000   0.000000000000 
     3017.000   0.000000000000 
     3018.000   0.000000000000 
     3019.000   0.000000000000 
     3020.000   0.000000000000 
     3021.000   0.000000000000 
     3022.000   0.000000000000 
     3023.000   0.000000000000 
     3024.000   0.000000000000 
     3025.000   0.000000000000 
     3026.000   0.000000000000 
     3027.000   0.000000000000 
     3028.000   0.000000000000 
     3029.000   0.000000000000 
     3030.000   0.000000000000 
     3031.000   0.000000000000 
     3032.000   0.000000000000 
     3033.000   0.000000000000 
     3034.000   0.000000000000 
     3035.000   0.000000000000 
     3036.000   0.000000000000 
     3037.000   0.000000000000 
     3038.000   0.000000000000 
     3039.000   0.000000000000 
     3040.000   0.000000000000 
     3041.000   0.000000000000 
     3042.000   0.000000000000 
     3043.000   0.000000000000 
     3044.000   0.000000000000 
     3045.000   0.000000000000 
     3046.000   0.000000000000 
     3047.000   0.000000000000 
     3048.000   0.000000000000 
     3049.000   0.000000000000 
     3050.000   0.000000000000 
     3051.000   0.000000000000 
     3052.000   0.000000000000 
     3053.000   0.000000000000 
     3054.000   0.000000000000 
     3055.000   0.000000000000 
     3056.000   0.000000000000 
     3057.000   0.000000000000 
     3058.000   0.000000000000 
     3059.000   0.000000000000 
     3060.000   0.000000000000 
     3061.000   0.000000000000 
     3062.000   0.000000000000 
     3063.000   0.000000000000 
     3064.000   0.000000000000 
     3065.000   0.000000000000 
     3066.000   0.000000000000 
     3067.000   0.000000000000 
     3068.000   0.000000000000 
     3069.000   0.000000000000 
     3070.000   0.000000000000 
     3071.000   0.000000000000 
     3072.000   0.000000000000 
     3073.000   0.000000000000 
     3074.000   0.000000000000 
     3075.000   0.000000000000 
     3076.000   0.000000000000 
     3077.000   0.000000000000 
     3078.000   0.000000000000 
     3079.000   0.000000000000 
     3080.000   0.000000000000 
     3081.000   0.000000000000 
     3082.000   0.000000000000 
     3083.000   0.000000000000 
     3084.000   0.000000000000 
     3085.000   0.000000000000 
     3086.000   0.000000000000 
     3087.000   0.000000000000 
     3088.000   0.000000000000 
     3089.000   0.000000000000 
     3090.000   0.000000000000 
     3091.000   0.000000000000 
     3092.000   0.000000000000 
     3093.000   0.000000000000 
     3094.000   0.000000000000 
     3095.000   0.000000000000 
     3096.000   0.000000000000 
     3097.000   0.000000000000 
     3098.000   0.000000000000 
     3099.000   0.000000000000 
