# from ASAGIO
#wave(NM)   resp   
115000.0   0.02   
117000.0   0.04   
119000.0   0.23   
121000.0   0.6   
123000.0   0.72   
125000.0   0.7   
127000.0   0.67   
129000.0   0.72   
131000.0   0.74   
133000.0   0.72   
135000.0   0.71   
137000.0   0.7   
139000.0   0.72   
141000.0   0.73   
143000.0   0.76   
145000.0   0.74   
147000.0   0.68   
149000.0   0.64   
151000.0   0.65   
153000.0   0.6   
155000.0   0.53   
157000.0   0.53   
159000.0   0.49   
161000.0   0.57   
163000.0   0.33   
165000.0   0.37   
167000.0   0.37   
169000.0   0.47   
171000.0   0.45   
173000.0   0.58   
175000.0   0.24   
177000.0   0.17   
179000.0   0.0   
