#wavelength (A)   trans   
1666666.7   7.303e-11   
1669449.1   -4.399e-10   
1672240.8   -2.918e-10   
1674761.3   -4.699e-10   
1677570.9   5.307e-10   
1680389.9   1.503e-09   
1683218.3   2.893e-10   
1685772.1   3.156e-10   
1688618.7   -2.126e-10   
1691475.0   -1.806e-11   
1694340.9   -1.115e-10   
1697216.6   8.947e-11   
1699813.0   -1.112e-10   
1702707.3   -9.274e-11   
1705611.5   3.297e-10   
1708525.5   2.484e-10   
1711449.6   2.715e-10   
1714089.8   3.798e-10   
1717033.0   1.756e-10   
1719986.2   2.514e-11   
1722949.7   7.593e-10   
1725625.5   3.926e-10   
1728608.5   2.692e-10   
1731601.7   3.997e-10   
1734605.4   7.128e-10   
1737619.5   4.901e-10   
1740341.1   7.126e-10   
1743375.2   6.292e-10   
1746419.8   7.504e-11   
1749475.2   4.494e-10   
1752541.2   6.258e-10   
1755309.8   3.939e-10   
1758396.3   7.335e-10   
1761493.7   8.861e-10   
1764602.1   1.23e-09   
1767409.7   1.63e-09   
1770538.2   2.445e-09   
1773678.6   3.01e-09   
1776830.1   3.803e-09   
1779992.9   4.887e-09   
1782849.0   4.829e-09   
1786033.2   5.439e-09   
1789228.8   7.242e-09   
1792435.9   9.962e-09   
1795654.5   1.286e-08   
1798561.2   1.609e-08   
1801801.8   1.586e-08   
1805054.2   1.273e-08   
1808318.3   8.698e-09   
1811266.1   5.808e-09   
1814552.7   4.77e-09   
1817851.3   4.175e-09   
1821161.9   4.648e-09   
1824484.6   4.708e-09   
1827485.4   4.784e-09   
1830831.2   4.457e-09   
1834189.3   4.293e-09   
1837559.7   3.351e-09   
1840942.6   3.482e-09   
1843997.8   2.716e-09   
1847404.4   3.307e-09   
1850823.6   3.688e-09   
1854255.5   3.821e-09   
1857355.1   3.05e-09   
1860811.3   2.531e-09   
1864280.4   1.544e-09   
1867762.4   1.008e-09   
1871257.5   7.914e-10   
1874414.2   1.015e-09   
1877934.3   6.826e-10   
1881467.5   2.868e-10   
1885014.1   2.754e-10   
1888574.1   2.001e-10   
1891789.6   1.408e-10   
1895375.3   3.691e-10   
1898974.6   3.007e-10   
1902587.5   2.24e-10   
1905851.0   1.524e-10   
1909490.2   1.115e-10   
1913143.3   4.635e-10   
1916810.4   3.852e-10   
1920491.6   6.59e-11   
1923816.9   1.93e-10   
1927525.1   1.802e-10   
1931247.6   2.552e-10   
1934984.5   5.208e-10   
1938360.1   2.069e-10   
1942124.7   2.166e-10   
1945903.9   2.686e-10   
1949697.8   4.188e-10   
1953506.5   5.053e-10   
1956947.2   4.281e-10   
1960784.3   3.558e-10   
1964636.5   1.959e-10   
1968503.9   9.753e-10   
1972386.6   2.511e-10   
1975894.1   6.071e-10   
1979806.0   4.194e-10   
1983733.4   4.369e-10   
1987676.4   3.161e-10   
1991238.6   1.546e-09   
1995211.5   1.076e-09   
1999200.3   -2.116e-10   
2003205.1   6.695e-10   
2007226.0   1.008e-09   
2010858.6   1.127e-09   
2014910.3   -7.254e-12   
2018978.4   1.489e-10   
2023062.9   1.685e-09   
2027164.0   -9.345e-10   
2030869.2   8.844e-10   
2035002.0   7.173e-09   
2039151.7   2.2e-09   
2043318.3   -1.318e-09   
2047082.9   -6.92e-09   
2051282.1   1.916e-08   
2055498.5   -1.06e-08   
2059732.2   3.284e-09   
2063983.5   -1.042e-09   
2067824.6   5.855e-09   
2072109.4   -6.379e-10   
2076412.0   -9.195e-10   
2080732.4   1.187e-09   
2085070.9   7.201e-10   
2088991.0   -7.874e-11   
2093364.0   4.484e-10   
2097755.4   7.851e-10   
2102165.2   1.49e-10   
2106150.0   -1.602e-10   
2110595.2   9.51e-11   
2115059.2   2.858e-10   
2119542.2   1.204e-10   
2124044.2   -6.881e-11   
2128112.4   -2.588e-10   
2132650.9   -2.988e-10   
2137208.8   -1.662e-10   
2141786.2   -2.078e-10   
2146383.3   -1.357e-10   
2150537.6   -7.282e-11   
2155172.4   8.118e-12   
2159827.2   -4.825e-11   
2164502.2   -1.265e-10   
2168727.0   -1.513e-10   
2173440.6   -1.538e-10   
2178174.7   1.888e-10   
2182929.5   1.768e-10   
2187705.1   -4.725e-11   
2192021.0   2.495e-10   
2196836.6   4.619e-11   
2201673.3   1.792e-10   
2206531.3   -3.483e-11   
2210922.0   -7.655e-11   
2215821.0   -2.122e-11   
2220741.7   -1.197e-10   
2225684.4   -2.511e-11   
2230649.1   -2.743e-10   
2235136.3   1.346e-10   
2240143.4   8.28e-12   
2245172.9   4.596e-11   
2250225.0   2.613e-11   
2255300.0   5.097e-11   
2259887.0   5.349e-11   
2265005.7   2.093e-10   
2270147.6   9.466e-11   
2275312.9   -1.538e-11   
2279981.8   -6.418e-12   
2285192.0   -7.097e-13   
2290426.0   -2.059e-10   
2295684.1   -1.21e-10   
2300966.4   -8.431e-11   
2305741.3   6.692e-11   
2311070.0   9.809e-10   
2316423.4   7.181e-10   
2321801.7   5.26e-11   
2327205.0   -4.402e-10   
2332089.6   -1.132e-10   
2337540.9   6.375e-10   
2343017.8   6.782e-10   
2348520.4   8.984e-11   
2353494.9   1.238e-10   
2359046.9   -1.633e-10   
2364625.2   2.412e-10   
2370229.9   7.971e-11   
2375861.2   -5.285e-11   
2380952.4   -1.817e-10   
2386634.8   9.556e-11   
2392344.5   -7.44e-11   
2398081.5   1.666e-10   
2403846.2   -7.543e-12   
2409058.1   -4.727e-11   
2414875.6   9.55e-12   
2420721.4   9.07e-11   
2426595.5   -9.998e-13   
2431906.6   -3.553e-11   
2437835.2   -5.142e-10   
2443792.8   -3.916e-10   
2449779.5   5.539e-11   
2455795.7   -1.312e-11   
2461235.5   6.243e-10   
2467308.2   -4.085e-10   
2473410.8   -1.589e-10   
2479543.8   -3.945e-10   
2485707.2   -3.969e-10   
2491280.5   -2.651e-10   
2497502.5   -2.411e-10   
2503755.6   1.207e-10   
2510040.2   5.133e-10   
2515723.3   -6.08e-10   
2522068.1   1.092e-10   
2528445.0   5.891e-10   
2534854.2   4.707e-10   
2541296.1   7.301e-10   
2547121.8   3.3e-10   
2553626.1   1.987e-10   
2560163.9   1.067e-09   
2566735.1   8.702e-10   
2573340.2   -6.361e-10   
2579313.9   5.044e-10   
2585984.0   2.367e-10   
2592688.6   4.185e-11   
2599428.1   3.746e-10   
2605523.7   1.865e-10   
2612330.2   -1.435e-09   
2619172.3   7.014e-10   
2626050.4   -5.975e-10   
2632964.7   -5.383e-10   
2639218.8   2.5e-10   
2646202.7   -5.037e-11   
2653223.7   6.174e-10   
2660282.0   5.091e-10   
2666666.7   1.692e-11   
2673796.8   1.532e-09   
2680965.1   1.429e-09   
2688172.0   -2.734e-10   
2695417.8   5.771e-10   
2701972.4   8.813e-10   
2709292.9   2.783e-10   
2716653.1   1.084e-09   
2724053.4   -5.147e-11   
2731494.1   -2.035e-09   
2738225.6   -3.089e-09   
2745744.1   7.128e-10   
2753304.0   -3.298e-09   
2760905.6   -2.08e-09   
2767783.0   -3.558e-10   
2775464.9   -1.538e-09   
2783189.5   3.061e-10   
2790957.3   -2.475e-09   
2798768.5   4.6e-10   
2805836.1   7.044e-10   
2813731.0   1.563e-09   
2821670.4   -1.488e-09   
2829654.8   -6.089e-10   
2837684.4   4.833e-10   
2844950.2   -9.472e-10   
2853067.0   4.905e-10   
2861230.3   3.477e-10   
2869440.5   5.359e-09   
2876870.0   8.201e-09   
2885170.2   1.332e-08   
2893518.5   2.044e-08   
2901915.3   1.401e-08   
2910360.9   3.577e-08   
2918004.1   -1.462e-08   
2926543.8   -8.284e-08   
2935133.5   -1.924e-09   
2943773.9   -1.2e-09   
2952465.3   -1.785e-10   
2960331.6   -2.664e-08   
2969121.1   -2.427e-08   
2977963.1   -9.012e-09   
2986857.8   1.106e-07   
2994908.7   7.241e-08   
3003905.1   1.219e-07   
3012955.7   -1.214e-07   
3022061.0   -5.933e-08   
3031221.6   1.874e-08   
3039513.7   1.912e-07   
3048780.5   -9.9e-08   
3058104.0   1.468e-07   
3067484.7   -3.041e-08   
3076923.1   -3.018e-08   
3085467.4   -8.618e-08   
3095017.0   4.924e-07   
3104625.9   2.679e-07   
3114294.6   1.573e-07   
3123048.1   1.393e-08   
3132832.1   -3.344e-09   
3142677.6   1.136e-07   
3152585.1   -1.234e-07   
3162555.3   3.754e-07   
3171582.6   3.877e-07   
3181673.6   3.693e-07   
3191828.9   3.21e-08   
3202049.3   2.607e-07   
3211303.8   3.597e-07   
3221649.5   8.046e-07   
3232062.1   7.438e-07   
3242542.2   3.93e-07   
3253090.4   1.317e-06   
3262642.7   7.295e-07   
3273322.4   2.245e-06   
3284072.2   7.769e-07   
3294892.9   1.894e-06   
3305785.1   2.094e-06   
3315649.9   3.381e-06   
3326680.9   3.758e-06   
3337783.7   5.752e-06   
3348961.8   6.231e-06   
3359086.3   6.151e-06   
3370407.8   8.098e-06   
3381805.9   8.192e-06   
3393281.3   1.376e-05   
3404834.9   1.616e-05   
3415300.5   1.155e-05   
3427004.8   1.604e-05   
3438789.5   3.05e-05   
3450655.6   3.425e-05   
3462603.9   4.216e-05   
3473428.3   6.745e-05   
3485535.3   8.817e-05   
3497726.5   0.000112   
3510003.5   0.0001704   
3521126.8   0.0002653   
3533568.9   0.0003551   
3546099.3   0.0003939   
3558718.9   0.0004812   
3571428.6   0.0005991   
3582945.2   0.0005781   
3595828.8   0.0004857   
3608805.5   0.0005162   
3621876.1   0.0005944   
3635041.8   0.0006789   
3646973.1   0.0007889   
3660322.1   0.000735   
3673769.3   0.0007295   
3687315.6   0.0007262   
3699593.1   0.0008121   
3713330.9   0.0007907   
3727171.1   0.0008664   
3741114.9   0.0009306   
3755163.3   0.001129   
3767897.5   0.001562   
3782148.3   0.001818   
3796507.2   0.002195   
3810975.6   0.002536   
3825554.7   0.003321   
3838771.6   0.004067   
3853564.5   0.004979   
3868472.3   0.006328   
3883495.1   0.007991   
3897116.1   0.01003   
3912363.1   0.01311   
3927729.8   0.01761   
3943217.7   0.02317   
3958828.2   0.02993   
3972983.7   0.03846   
3988831.3   0.04982   
4004805.8   0.06344   
4020908.7   0.08048   
4037141.7   0.1037   
4051863.9   0.1314   
4068348.3   0.1671   
4084967.3   0.2188   
4101722.7   0.2816   
4116920.5   0.3536   
4133939.6   0.4127   
4151100.9   0.4623   
4168403.5   0.5077   
4185851.8   0.5229   
4201680.7   0.534   
4219409.3   0.548   
4237288.1   0.5636   
4255319.1   0.5738   
4271678.8   0.5875   
4290004.3   0.5952   
4308487.7   0.6074   
4327131.1   0.6054   
4345936.5   0.6114   
4363001.7   0.595   
4382120.9   0.5923   
4401408.5   0.6009   
4420866.5   0.6112   
4440497.3   0.6124   
4458314.8   0.6052   
4478280.3   0.6056   
4498425.6   0.5745   
4518752.8   0.5651   
4537205.1   0.5618   
4557885.1   0.5533   
4578754.6   0.5487   
4599816.4   0.5657   
4621072.1   0.5816   
4640371.2   0.5839   
4662004.7   0.6029   
4683840.7   0.5911   
4705882.4   0.5818   
4728132.4   0.5595   
4748338.1   0.5531   
4770992.4   0.5292   
4793863.9   0.5243   
4816955.7   0.5125   
4837929.4   0.5263   
4861448.7   0.5404   
4885197.9   0.549   
4909180.2   0.5499   
4933399.1   0.5393   
4955401.4   0.5372   
4980079.7   0.5315   
5005005.7   0.5322   
5030181.1   0.53   
5055611.7   0.5215   
5078720.2   0.5088   
5104645.2   0.5168   
5130836.3   0.5254   
5157297.6   0.5113   
5181347.2   0.5172   
5208333.3   0.5187   
5235602.1   0.5011   
5263157.9   0.503   
5291005.3   0.5173   
5316321.1   0.5435   
5344735.4   0.5358   
5373455.1   0.5411   
5402485.1   0.5465   
5431830.5   0.5343   
5458515.3   0.5327   
5488474.2   0.5134   
5518763.8   0.5064   
5549389.6   0.5168   
5577244.8   0.5012   
5608525.1   0.5166   
5640157.9   0.5538   
5672149.7   0.5605   
5704506.6   0.5676   
5733945.1   0.5628   
5767012.7   0.5489   
5800464.1   0.534   
5834305.7   0.5414   
5865102.6   0.5359   
5899705.1   0.5586   
5934718.1   0.5799   
5970149.3   0.563   
6006006.1   0.5651   
6038647.3   0.5721   
6075334.1   0.5685   
6112469.4   0.2461   
6150061.5   0.1362   
6188118.8   0.09056   
6222775.4   0.06571   
6261740.8   0.05111   
6301197.2   0.03955   
6341154.1   0.03173   
6377551.1   0.02588   
6418485.2   0.02147   
6459948.3   0.01756   
6501950.6   0.01429   
6544502.6   0.01196   
6583278.5   0.009056   
6626905.2   0.009427   
6671114.1   0.00805   
6715916.7   0.007496   
6761325.2   0.006734   
6802721.1   0.00594   
6849315.1   0.005277   
6896551.7   0.004565   
6944444.4   0.003878   
6988120.2   0.003416   
7037297.7   0.00308   
7087172.2   0.002898   
7137758.7   0.002497   
7189072.6   0.002318   
7235890.8   0.002009   
7288629.7   0.001944   
7342143.9   0.001764   
7396449.7   0.001586   
7451564.8   0.001498   
7501875.5   0.001382   
7558579.6   0.001166   
7616146.2   0.00107   
7674597.1   0.001028   
7727975.3   0.0009184   
7788162.7   0.0007801   
7849293.6   0.0007453   
7911392.4   0.0006762   
7974481.7   0.0006666   
8032128.5   0.000607   
8097166.9   0.0005691   
8163265.3   0.0005219   
8230452.7   0.0005164   
8298755.2   0.0004698   
8361204.1   0.0004658   
8431703.2   0.0004253   
8503401.4   0.0003716   
8576329.3   0.0003314   
8643042.4   0.0002837   
8718395.8   0.0002661   
8795074.8   0.0002476   
8873114.5   0.0002441   
8952551.5   0.0001994   
9025270.8   0.0001895   
9107468.1   0.0001792   
9191176.5   0.000182   
9276437.8   4.572e-07   
9363295.9   3.937e-07   
9442870.6   3.446e-07   
9532888.5   2.76e-07   
9624639.1   2.682e-07   
9718173.1   2.486e-07   
9803921.6   2.297e-07   
9900990.1   1.992e-07   
10000000.0   1.551e-07   
